F3,F1,Fz,F2,F4,FFC5h,FFC3h,FFC1h,FFC2h,FFC4h,FFC6h,FC5,FC3,FC1,FCz,FC2,FC4,FC6,FTT7h,FCC5h,FCC3h,FCC6h,FTT8h,C5,C3,C1,Cz,C2,C4,C6,TTP7h,CCP5h,CCP3h,CCP1h,CCP2h,CCP4h,CCP6h,TTP8h,CP5,CP3,CP1,CPz,CPP5h,CPP3h,CPP1h,CPP2h,CPP4h,CPP6h,P3,P1,Pz,P2,P4,PPO1h,PPO2h
3.850735128198254,7.9016102952558604,6.1606362094927425,3.764855648536015,-5.195039995056041,15.163245214193987,13.855069750145471,13.20321649397853,16.916852350844316,12.377451707622447,4.313369050088051,13.61569471952274,20.312703047473484,20.848304908153185,17.72728547567893,17.70657790595737,6.559328735144496,-5.08337772790347,13.544826604053362,7.659612457278573,25.551268370492362,5.2124988815652635,-5.893379034538462,12.890923716512093,21.842748391326893,25.30927699941715,32.128532927689626,23.716526918044508,15.074553245164873,5.199034501267836,20.900324868757764,23.33273268147259,26.360665493352673,30.101186273648562,25.75373070632735,23.381894605866684,-24.46760559239919,1.523795649674934,19.406491038062885,24.01516603237952,29.769061806845393,27.06785926968012,22.15480185651447,22.113163545828357,27.54778930531726,27.46562537884632,17.315157864431804,8.147633633404702,24.489501450419475,24.132557328410204,27.446776090937064,17.40899344627985,13.44430602085289,19.628408463277655,19.190757465108145
3.112132435930995,7.546048387744882,5.340303605120652,3.1431541843637305,-5.246752519290145,14.081019498353728,13.043667395498435,12.487622519575744,15.815735066320824,11.152674634973417,3.029271711039184,11.80889584239665,19.54073737342499,19.958625914462676,16.9216833190594,16.883936360667605,6.44374738820166,-4.4080279990794535,12.946271502610614,8.263462120444967,25.28868105015476,4.5982357479582845,-5.100795129836488,12.373480350909164,21.142340200631402,24.519303978044597,31.06515863115893,22.579237278169266,14.071129722526221,5.021380095123706,18.929595867216555,23.297569325870594,25.236280758286423,29.082230231985136,24.387390271697512,21.97377639039506,-22.613319219471602,1.6655571699689693,19.87890867241522,23.376378069268835,28.543150378996224,26.10981473876731,21.622185349692753,21.146856988492388,26.133303711791253,26.082451089952407,14.86634740126481,6.245236581476739,23.50270405171811,23.268751668202633,25.42402712540598,14.682020197574108,9.978897760460551,17.787249109395365,16.403194577514917
1.7698203626359825,6.679035683834051,3.950036334406902,1.8923023979106572,-6.616019657207004,12.493659968223044,11.942395733898806,11.315459928187,14.31145620225469,9.350534831389192,1.0602723918069379,9.624029149357781,18.244584120813492,18.774835496143965,15.644914430186395,15.530829491485859,5.625220818463208,-3.8747991618642033,12.272439701495728,8.281871863090593,24.72331102911919,3.3573588979610745,-4.559670833759174,12.254969788741489,20.29813089102042,23.454689072418123,29.82289229145793,20.95941241390107,12.358492663660202,3.9496246753637356,16.787113847335654,22.77345659426361,23.939904906114084,27.656301976517828,22.562487619331492,19.99816027256857,-21.363837487671358,2.2598319865922853,19.93041611529689,22.461899737829828,27.06774603318598,24.5585436388761,20.7466850478517,20.086580023189406,24.444956817087853,24.305202218165846,12.128331107739152,3.8332365343164225,22.290237717348138,22.11645047789969,23.074912665515146,11.646751919678177,6.142407072869515,15.707295689125218,13.121853063877545
-0.01581949342648259,5.340707743558189,2.077474701992215,0.05099824970026123,-9.200653995499025,10.643639955512105,10.627301956850566,9.76100321269063,12.450892375787854,7.0647265324226645,-1.435690381758429,7.382323569705656,16.543125464827988,17.354250369513593,13.903206237064978,13.659847666974379,4.033585582583323,-3.83211682784932,11.693888153899671,7.669439473035755,23.806519246985342,1.5840803903490692,-4.6243641804999065,12.438614023595688,19.37140492183549,22.16840820347931,28.386865919880822,18.841577110906943,9.949821875282664,2.3204673905284006,14.838256392199487,21.82413482388657,22.561768035361045,25.924246146895563,20.354201402164477,17.453759894928943,-20.948795544752496,2.834247353824561,19.46897730353243,21.327746245990678,25.471336648424803,22.556798301061765,19.609201872625082,18.917577783562184,22.557788764422863,22.12966842208823,9.243735235194755,0.9150537316515699,20.936964128769567,20.720847180850786,20.576455460250717,8.51746275073581,2.088371614928807,13.48792640931866,9.611399519809675
-2.030926059830035,3.6331796069131475,-0.10954627940014627,-2.229982724656436,-12.619567552321765,8.8288257070741,9.178620600647356,7.938503494161458,10.330720486397285,4.488310740566006,-4.181807082797239,5.412094818831253,14.593097079243355,15.748565603384593,11.777525846330532,11.376511514851055,1.7722767212359711,-4.584261038293239,11.254943904658072,6.465973815538174,22.538023778304215,-0.49329644747124446,-5.558485786670596,12.667318526421935,18.396658706071726,20.702249230467075,26.7329834034148,16.30752992604785,7.001924984182834,0.6192728035478208,13.374145882004939,20.551599035311224,21.137518490911134,24.007640320059483,17.875784939811503,14.448244847060538,-21.29230499301897,2.852866781895119,18.485847061602733,20.01649977987064,23.82365553157372,20.298140171150692,18.302287755581503,17.61015011312046,20.513685102170896,19.56345330283694,6.339724500946227,-2.374934244929447,19.51695071197783,19.12642282440903,18.079938053086867,5.459159107835041,-2.002777630466781,11.180482978622816,6.119471901017034
-4.051166475601651,1.696344086385519,-2.4180480775593844,-4.744142804666902,-16.32417861185653,7.346332831150786,7.66658787125128,5.970764859324411,8.065051774172561,1.854807607804412,-6.858406818409174,3.99335894344012,12.569573250707606,13.991535938389108,9.39688286481811,8.849333196621018,-0.8998379439306499,-6.277548934068244,10.866289829355203,4.785113916972339,20.96985376208588,-2.5852990390320243,-7.433435738600499,12.6236045695354,17.395829924791585,19.08192587592284,24.832019866058253,13.51553232178198,3.772691351739652,-0.7164080199080081,12.548798592183324,19.079879792356465,19.663370703372212,22.017146206614445,15.241612043119936,11.174291748013491,-22.230871142567462,1.903839357618903,17.083137602477876,18.56653896937795,22.131577073584,17.956715404528023,16.906253241092557,16.13158602921962,18.31748398297083,16.632862041498598,3.497271977483798,-5.795924533767548,18.07464757903149,17.35872834113965,15.668738585140172,2.544214491223788,-5.94770740395187,8.784685266069392,2.813898135119054
-5.897840149265962,-0.33816860057714315,-4.702480695341344,-7.302002443326829,-19.76074912799947,6.406169521733846,6.127507724834083,3.9502503732318415,5.744212441144302,-0.6395666559982891,-9.19879472404198,3.2803428715342897,10.623941787430686,12.086411006464552,6.890688029753871,6.253137646410983,-3.6412753017143986,-8.829760594766668,10.35655992406475,2.8047688485191364,19.193926817591482,-4.446876799724297,-10.083647117932152,12.04127681176706,16.388342379843458,17.322529260564167,22.656195266993343,10.65518507389232,0.5486543564716206,-1.4907024988496138,12.345403933471015,17.53372878073763,18.118326249945095,20.027276864143253,12.538379605604154,7.85724821327508,-23.826196378837633,-0.14696770999208475,15.458032185133131,17.016060480261995,20.34958436749462,15.631597927273445,15.463379412194172,14.449017893640539,15.940740410851653,13.381575939486067,0.7337438157151275,-9.075581728668512,16.603622927863565,15.408504548323126,13.331748536240578,-0.25213405105633324,-9.588696770390369,6.2638886068456925,-0.2549454142638097
-7.4736495590441585,-2.377740567432282,-6.910611879895225,-9.78096294251438,-22.527029169804486,6.058933190871757,4.556879026572829,1.9183987043050506,3.415495730574267,-2.8888494193033,-11.06349188370869,3.2503859000603073,8.846890397153565,10.014715520292347,4.356275632083488,3.7209947935801373,-6.137490968223919,-11.931435371184769,9.543571900725375,0.7240537939342846,17.308635713966602,-5.9778157818093405,-13.139630478607588,10.781090247349029,15.371475339560424,15.423725678617172,20.17865716519753,7.882388684925169,-2.4453519903638843,-1.8567739395665361,12.585016512320394,16.008681026746704,16.48077683408832,18.051553815937243,9.800806189840593,4.681243573841634,-25.717440058002406,-3.117665743909809,13.842663767191048,15.393876291402055,18.399828951035268,13.31929933531895,13.97306119187369,12.536949545685811,13.345011965468363,9.87386450795797,-1.9736219227633645,-11.979565442247953,15.05266271659297,13.235586974348045,10.976052851096432,-3.022821748815125,-12.794815875247041,3.5779912228503292,-3.1479469046355333
-8.789957373652783,-4.392561017791515,-9.090009026787563,-12.153912416957628,-24.483291911905667,6.159171107203953,2.9093854673795905,-0.13476177226477304,1.0762891939950192,-4.905715531657604,-12.480590866470111,3.688276803912402,7.2435687775217374,7.755336681008495,1.8407301248197387,1.3112825977491123,-8.194331136803552,-15.112966169535234,8.324822002868832,-1.295895023609218,15.379903797546117,-7.25673521843386,-16.11816560710098,8.864281318410432,14.30297455477688,13.37730605014758,17.39189302276932,5.277460510727425,-5.104615735868336,-2.262669715520861,12.99394161515336,14.550073956618153,14.743329464908516,16.043459405990497,7.011342365980443,1.7332858677934033,-27.73056961635967,-6.566406671410418,12.432911530846138,13.711856049313472,16.21051872826508,10.929584485256155,12.400522192148433,10.381136144502372,10.505641626576903,6.200947406537762,-4.658299117275087,-14.369908139228531,13.344149478842933,10.793299996600194,8.474979136596705,-5.858270791444002,-15.465885464452459,0.7288923469835238,-5.982026945299014
-9.963581232038019,-6.419684090527852,-11.352819738194583,-14.476732028474142,-25.778735331781235,6.382493553912985,1.1098382899577777,-2.2548050159746476,-1.3099575297563097,-6.80591071683642,-13.626498291939788,4.217200046706202,5.731710855774317,5.305959157829586,-0.6568245215827297,-0.99625103252917,-9.790317223941596,-17.873453886047848,6.734622569025277,-3.1685096855007076,13.418183077253978,-8.50007200609388,-18.560840160154974,6.450439943633407,13.092638924082983,11.174689233184989,14.32526054985955,2.8357696013595293,-7.451243605798409,-3.263781567405256,13.295114666380634,13.144192859839723,12.904791640740203,13.919792156732928,4.129098129907456,-1.0044580057323143,-29.962221682671608,-9.935980233549872,11.321245360973787,11.956798513511607,13.746464311870636,8.341937300472159,10.699661533620317,7.98511197501981,7.436908606049961,2.4896141641091445,-7.326197945563393,-16.22156440927992,11.407202782688938,8.067116966690142,5.736589775032019,-8.766611776214578,-17.524996588673865,-2.2043787910563166,-8.846485034553416
-11.167044766033907,-8.523124827596373,-13.799845933833527,-16.832584608792313,-26.783678914823327,6.31890890410094,-0.9042906095762868,-4.481724084097867,-3.7732569941362657,-8.744151111832537,-14.749262902807521,4.40097018576915,4.181107721239224,2.713112565097219,-3.153575095258589,-3.2639316868358823,-11.070202572105451,-19.83063553940339,4.945082056179835,-4.8976657936717505,11.379173785147849,-9.966302011407446,-20.172513669366246,3.7829108778895297,11.612094687191291,8.808546892504966,11.052048816310439,0.4850648064912296,-9.600812996496579,-5.280396375810932,13.299532042837054,11.730763968705006,10.96028677784836,11.599218743496316,1.1322917397726646,-3.618747565549063,-32.209222615987784,-12.733833269836415,10.462972407819944,10.093674572765782,11.030156449311338,5.476749357449655,8.85694396370612,5.395593130527174,4.223677608199239,-1.0837854394512343,-9.904636831523218,-17.569653459935733,9.232922992148161,5.121437652586416,2.773810431979803,-11.621570275618886,-18.889465400369726,-5.0481537909267,-11.719051168660618
-12.569373581417775,-10.74946991065239,-16.448653808926206,-19.272419914572758,-27.957878105418395,5.600912827315343,-3.144071082827966,-6.81434323457468,-6.300871623147068,-10.838817571829715,-16.073264291977512,3.8727544542576244,2.470466951240057,0.08182489358092726,-5.647917239890184,-5.550739064742838,-12.26961999093599,-20.829274032812204,3.225235454296065,-6.550003212920178,9.200777985785525,-11.822765644807722,-20.897484010470595,1.1399814565361575,9.745611831319662,6.297108633724436,7.704916444955532,-1.855550173129454,-11.684309869700751,-8.37159240657018,12.974692565224757,10.242445735833911,8.911123018616188,9.057565721917088,-1.9320168697417552,-6.188013627634955,-34.40731728530963,-14.652469101373692,9.706017625917877,8.095601035426292,8.160736422963566,2.363828085368371,6.921777548696262,2.7203100062994805,1.0315238462687737,-4.295351127136416,-12.233253200922409,-18.445412544716692,6.909837796195229,2.121378364435727,-0.26020020721064685,-14.159327129981918,-19.464153571186344,-7.551310029483802,-14.426130084598354
-14.269613692828797,-13.084434760367937,-19.188876024158482,-21.762166961515202,-29.68422162969452,4.033213208637163,-5.538511886007487,-9.186021309500049,-8.809669225563246,-13.10644261346968,-17.709703012297833,2.4581915162215826,0.5569611021808406,-2.428742756567955,-8.086136684655905,-7.859982612092316,-13.612798126584195,-20.981755044994326,1.8535942042944122,-8.194923545790662,6.852893173374748,-14.044281442066563,-20.92456522576041,-1.2137011095467414,7.454285495760785,3.7056313819733986,4.4721482581259115,-4.211268170456198,-13.767051786339701,-12.15106709078054,12.438333943545178,8.647677043122432,6.774407100249332,6.361684241261242,-4.9232326234422175,-8.707324343503377,-36.27082571627557,-15.625420697550808,8.862847235772932,5.9809423363306875,5.309627498189378,-0.8325756197587342,5.0195280684956405,0.13096110709734998,-1.9035988013643554,-6.892616108025367,-14.084327052453908,-18.81684975550029,4.629928291761616,-0.6760882877169287,-3.0820851058510366,-16.03172562071617,-19.145204351710262,-9.435629524888625,-16.65075943689257
-16.247395934066812,-15.423570421454379,-21.78846852583146,-24.163518358773583,-32.12671132426428,1.6818160067671588,-7.921622758758747,-11.45923812363123,-11.146223991116752,-15.434472679946191,-19.610743007103366,0.2512663832876645,-1.4791034308726592,-4.628672572961678,-10.350021346921839,-10.108711069785198,-15.218440066501199,-20.62128463319903,1.0279529197223227,-9.832790756002346,4.386387680691928,-16.395114946225576,-20.610546097333362,-3.058319077483071,4.835957867167159,1.1562344396519992,1.5719383757583811,-6.515103806112557,-15.799188959436785,-15.890264713572805,11.903782414558162,6.993176675655406,4.6050797110651045,3.6776546544180615,-7.613378987541806,-11.044984694458718,-37.41827349808335,-15.789098229172511,7.7993474879823825,3.847417577023407,2.6995680156578326,-3.838663504176206,3.3441842824863297,-2.145170976365379,-4.307142941122921,-8.629458114882102,-15.203984056668764,-18.557040554845663,2.6647016277857745,-2.9623850607656648,-5.3355721207120625,-16.897222740943505,-17.836921747762613,-10.45911526857667,-17.998291720423772
-18.358992280952222,-17.58738698608574,-23.96154269551978,-26.266562401814394,-35.159073323715646,-1.128664202297509,-10.063667798309513,-13.458423154875376,-13.12339634911127,-17.60750871433502,-21.585271788532495,-2.4009231910194155,-3.444521649716107,-6.346289772681725,-12.27970062621313,-12.142635864521722,-17.0463909015774,-20.18362390705761,0.8067376433616222,-11.34632283410029,1.9621103858313793,-18.498156694199334,-20.34996827506134,-4.22986520534093,2.1484725461619325,-1.1731133618643619,-0.7820044655826495,-8.604668635262952,-17.613667794860632,-18.76177876799716,11.598045937793916,5.42432355452876,2.518876703032503,1.2475856172075162,-9.727261753285383,-12.950104511441568,-37.78245698097058,-15.366909719903681,6.514491762254451,1.8832895491940533,0.5717313411370055,-6.331608644773085,2.1089547265862567,-3.8692943237039197,-5.925818947905249,-9.32346398979153,-15.38082975063521,-17.48350194718256,1.298824122403711,-4.4532585220506915,-6.692176175886581,-16.528932679439603,-15.496753537484318,-10.489287854427879,-18.119196762747478
-20.372512251974854,-19.367550917839473,-25.4611629075478,-27.85348384692165,-38.37933367294235,-3.907488021804996,-11.73004286216689,-15.01623149892971,-14.569598507293115,-19.37473453105223,-23.36580807834438,-4.996795837765347,-5.079520903438029,-7.470716636657976,-13.714235808382861,-13.774165066475131,-18.91193923576255,-20.05990694944676,1.092952446149145,-12.517139931993386,-0.17534259319722256,-19.969045814040793,-20.443019666684506,-4.642091437314141,-0.2382132193059981,-3.0774560928881933,-2.426142189585822,-10.262053659923358,-18.978312305360912,-20.13745798258091,11.655853989815483,4.154255357121905,0.6843859707743887,-0.6772134206350006,-11.018859519332667,-14.126181522843977,-37.32188248357261,-14.559368661462438,5.158272385911868,0.33187897369345176,-0.8658592973035448,-8.033381842924243,1.4789458555755406,-4.8591337032085145,-6.595229007848706,-8.91353304632341,-14.51252865397672,-15.446570261264178,0.7388155861560142,-4.971028169065945,-6.951578981355305,-14.895094745362382,-12.180306735161036,-9.551865516497276,-16.824458132990422
-22.04187196588492,-20.594904747741662,-26.17016345103869,-28.774288228852622,-41.21861917989247,-6.154117809483365,-12.756161478604163,-16.026011426318686,-15.384011823718096,-20.537051359644757,-24.70315957114956,-7.040539892565928,-6.147013410299477,-7.990173201797511,-14.54291680072915,-14.846976624646896,-20.556559792984896,-20.46732719688655,1.6679007939575645,-13.087683679664709,-1.7613368626226675,-20.568237511684337,-20.999800458642106,-4.315185153152436,-1.9443156477137282,-4.37643776798881,-3.2915623797919915,-11.283926139945653,-19.67642593378148,-19.824768096238312,12.05935566133212,3.3960820587179876,-0.7148679257303856,-1.911054697028007,-11.345054496946585,-14.329647744615444,-36.498482348772484,-13.474197933396837,3.976834955698358,-0.5799453062910711,-1.495086257533809,-8.792659647932755,1.5130775772796703,-5.0513921022057255,-6.296776730785471,-7.497057660077788,-12.652811285322835,-12.431339744843823,1.0349715146722884,-4.509465400463287,-6.113332659194486,-12.186151881364992,-8.075747256796369,-7.840412144501173,-14.171447778704993
-23.187133367504774,-21.20401243021149,-26.15430298287642,-29.007107896165437,-43.1040540185735,-7.521971389156247,-13.109522874271189,-16.485219048251032,-15.57473355316409,-21.01626086194733,-25.4456165918429,-8.203768822414506,-6.534115930765276,-8.008580414021855,-14.748078371185064,-15.295293425307353,-21.74448552911872,-21.388568799864437,2.26303781643399,-12.86679161306401,-2.6000721019182764,-20.303775773959273,-21.91577633067117,-3.387516369020284,-2.7110926513681735,-4.974201864678028,-3.4311332928989033,-11.556518610504234,-19.59160180490391,-18.147147346292822,12.645289420634356,3.280442981803012,-1.539880882422005,-2.397925160826686,-10.72119476364844,-13.466359224230818,-35.82975848647632,-12.121043472846956,3.21716304186579,-0.7288621399583448,-1.3300741753681065,-8.630506739837523,2.1298104366404775,-4.53763304408722,-5.180582748090533,-5.331462115366289,-10.01574575673507,-8.626135299105126,2.048307790756555,-3.2524688415809093,-4.396229690834951,-8.784790166455789,-3.504092907685602,-5.690184787590813,-10.491204492444542
-23.75260879102094,-21.26551341316337,-25.64960413614056,-28.682043833937445,-43.63144789393971,-7.928568805567911,-12.912983509145317,-16.50306317185674,-15.259861189127314,-20.886009102072823,-25.579703313085975,-8.429126675806302,-6.3091369553899685,-7.7199363295423264,-14.419784547786705,-15.168698919177647,-22.342099967555434,-22.585516135707763,2.6465771973972108,-11.848360550297603,-2.6509063529042125,-19.431340516363296,-22.91556511535518,-2.1036840004702753,-2.5099730860782214,-4.903369064165048,-3.0111507585214463,-11.102941527310135,-18.757966883178675,-15.824075856136705,13.161332193942215,3.78797164312825,-1.7573386924655123,-2.242695310390795,-9.339678601052077,-11.648700651796036,-35.580747051503664,-10.462900166783296,3.0211887676906812,-0.16449312512761782,-0.5288406084435406,-7.739342277981852,3.1123877964026665,-3.559193422083017,-3.5435826767933425,-2.7892444341829243,-6.93902542522039,-4.42041219255538,3.470275424511855,-1.53419291122406,-2.182434568231449,-5.170080350156126,1.128020876365185,-3.5009336937583493,-6.319505576343564
-23.82641371948156,-20.976014231370257,-24.989482781049222,-28.055790465821612,-42.69901363964988,-7.572761430889072,-12.420106430830941,-16.27280744021629,-14.639621694741184,-20.349894710151823,-25.22184896584416,-7.942586624232554,-5.714788285565408,-7.360164742423441,-13.738814642677951,-14.626562024880672,-22.357392561497615,-23.684125380343893,2.6782880320575937,-10.266917317950258,-2.0635585360357043,-18.362530010255547,-23.654720816049732,-0.782434710358197,-1.5791436998053434,-4.338020469470026,-2.2730376027916863,-10.082268051411141,-17.352155778466102,-13.709027005306702,13.363426164671008,4.720067199721875,-1.4788285985623189,-1.6838131053942895,-7.529801809579446,-9.175992774922598,-36.268068085127,-8.49051731641286,3.3504462629372345,0.8733215385710409,0.6301915173323609,-6.425417853259858,4.1548914199504985,-2.4589259333627256,-1.770435479488404,-0.2798878468991859,-3.818065404722996,-0.328270677537398,4.898020477374354,0.24117556056948675,0.08248906546434864,-1.7974132928528617,5.399015626320898,-1.6456095775135742,-2.269009865641553
-23.605455063004452,-20.598336637438727,-24.495267858118723,-27.43620733832119,-40.54589708837262,-6.850890249544326,-11.936609767857359,-16.015241634779592,-13.939086209219363,-19.667470819651292,-24.559845036253922,-7.161117067446618,-5.099960115343398,-7.143370451534365,-12.9304215705232,-13.890849988789515,-21.925916691566872,-24.311319135792413,2.3281942833686746,-8.562685467131423,-1.1517796391495212,-17.511970865366138,-23.84113500107417,0.24558915838527762,-0.36756099771077616,-3.5641898602839075,-1.4798097654695566,-8.747419245590972,-15.642181333888526,-12.484298804769434,13.11607549790358,5.732044681607749,-0.950656722753771,-1.0245486444223975,-5.676918112921168,-6.456430553561477,-37.943604940910376,-6.282793852416255,3.9815535415844536,2.006067492730959,1.8073970404320638,-5.0249236665111345,4.944645961385963,-1.5857660425740636,-0.2404385000211655,1.8446846752383133,-1.0143992123648702,3.152554238055929,5.951923299818152,1.7081198977422012,2.0053235928347553,1.0057737367812978,8.965891374613863,-0.38684629584380925,1.1217339082908233
-23.326335057909844,-20.372377227642534,-24.369401469256747,-27.083526058079194,-37.68456255823247,-6.2060278708066985,-11.722120203241452,-15.908760837955093,-13.337965008526524,-19.06225844131456,-23.769866587722394,-6.53411940268991,-4.803962992748028,-7.196263954111865,-12.198360402858896,-13.175007857020134,-21.24208762039184,-24.221843120240294,1.667287569729147,-7.260969969786057,-0.3044424358784239,-17.136680937277077,-23.32941913152718,0.7242857445267021,0.6056512446834124,-2.902359892525523,-0.8475283505725875,-7.370229477445922,-13.904965297478322,-12.418844644443261,12.444489152409052,6.433129387435373,-0.48487843567496736,-0.537883562997841,-4.122558572857624,-3.8897572129337505,-40.278010240124104,-4.00980702521789,4.57946621038989,2.827999765498819,2.6889814816022453,-3.8142255047506994,5.256515544414675,-1.1855090357554239,0.7747827307125283,3.379598694231575,1.2293557504106674,5.699011060633591,6.393181409238726,2.6444305234041243,3.3526444622160865,3.1125984465765635,11.656675236566578,0.19314710930179668,3.5327295583436666
-23.18420562100977,-20.433069399698613,-24.630840752617722,-27.123866524671488,-34.746052291755774,-5.963577814646667,-11.903041134248834,-16.029335912376304,-12.919542018858946,-18.643281941086055,-22.952988706154997,-6.37739241126652,-5.034011175704411,-7.520662917899395,-11.664696546093456,-12.617661052654958,-20.47273333838277,-23.37057060359603,0.8239350711158129,-6.801181091277563,0.14121393663288107,-17.235711469535488,-22.164819229734398,0.5502389890023083,0.9311506668134737,-2.6090890508771243,-0.48514968162730643,-6.157155791865731,-12.33664296020019,-13.285793750655081,11.517116900399369,6.514015632649761,-0.3573770435513568,-0.3726994771662734,-3.073716976715426,-1.7490359487110712,-42.79163920835293,-1.878062366226763,4.823979649693202,3.042259012426551,3.0756724735727703,-2.939139989274458,5.02079401183747,-1.3249865029218302,1.1810956637272372,4.3116941241388425,2.837871561221911,7.269653310225772,6.196835983816577,3.026625866288776,4.100125494459125,4.600172292644253,13.51055566171218,0.20537096450100112,4.939120149038329
-23.268145696796257,-20.763770538979255,-25.119689397994442,-27.50658602379441,-32.29241501490504,-6.22056741098009,-12.426980444493584,-16.327267398962523,-12.655101674201427,-18.373234892572995,-22.115962968954776,-6.762512211303143,-5.7918749861202175,-7.998157042509906,-11.34130581228184,-12.243459414576227,-19.692293850028026,-21.920152673459107,-0.06060424221680494,-7.369644712767496,0.016655366497146495,-17.549075944268928,-20.560765130353552,-0.18699684896346858,0.45970380053183496,-2.7926713142695365,-0.3699114055210826,-5.194440170742417,-11.000439586376627,-14.465982379414193,10.575807602160744,5.8632069100596755,-0.7065418454839305,-0.5082539129784179,-2.55515249801088,-0.11804730140321995,-44.688160726831455,-0.05813935791432989,4.5395368685119415,2.574069599575048,2.9413246910770345,-2.3926311311010506,4.342799821844925,-1.8720054798107746,1.0777923148451332,4.801341520176719,3.902861291704981,8.112123059853698,5.553073644403542,3.016938610245856,4.4098813289534045,5.685542407306561,14.756440813736885,-0.08747974163761096,5.588027190943585
-23.53584529304062,-21.197006163631524,-25.560692749717308,-28.014166856126558,-30.651904515404308,-6.824455941526827,-13.081193891571942,-16.64275477322373,-12.41954100242692,-18.09045285428754,-21.187277978852567,-7.500804620360505,-6.867254058279598,-8.426185720960513,-11.13055247438861,-11.961423215253577,-18.86692792218723,-20.18482814742379,-0.8653408430448972,-8.808955256954684,-0.6158899390691142,-17.67012270875572,-18.831973040138756,-1.2301439934095924,-0.6422344331084548,-3.3723018659626818,-0.36376792931133206,-4.4415610113528325,-9.832444176540534,-15.20667771118001,9.835754870944683,4.620929820182799,-1.4731660343642217,-0.7686862511564331,-2.417127680792559,1.098177165768473,-45.52059202413466,1.3759382696861504,3.765997681515328,1.6066819019457244,2.4379866409580737,-2.042359988659384,3.473773273985749,-2.535740349741684,0.7253584313226518,5.1208820322353565,4.644813812312609,8.675970336369396,4.802244214197105,2.8980646812404887,4.559096245298272,6.638597135251234,15.741399726418644,-0.3432799198133507,5.901525425191707
-23.83284946441398,-21.468954371596567,-25.660598813236227,-28.325475813598292,-29.831071340291825,-7.442213936460925,-13.562071154557657,-16.75336320719829,-12.037502635394594,-17.57450836315781,-20.071861429680542,-8.223266117693228,-7.902940954822878,-8.579619100033897,-10.859965255586745,-11.598834984154777,-17.885907288262562,-18.519148696499276,-1.5047300577256517,-10.654945072511266,-1.4812256388830276,-17.20983351373188,-17.293728971354895,-2.233196943122793,-1.9495392859024576,-4.094568110688547,-0.2587502081899524,-3.764418055910011,-8.686070901220285,-14.915362519725889,9.40444942859449,3.1466000120609143,-2.4083581417144577,-0.88543409805726,-2.3945425727751655,2.10594646027655,-45.03175561116058,2.478790244728043,2.7486904432688846,0.5260890360225323,1.8478291239630122,-1.69015084358785,2.7397801879253745,-2.955767459513642,0.4696683389499632,5.567061056177723,5.34387312472473,9.457952679126976,4.323270028218699,2.98037767375864,4.84448591103119,7.6953247251725125,16.823580398379725,-0.23034212610122928,6.341706908728147
-23.955538359679213,-21.314621186850836,-25.21065633941887,-28.11994145280188,-29.546909471352578,-7.697967603517876,-13.581045350163365,-16.450614372577302,-11.349333378925149,-16.638903071403192,-18.720429674946374,-8.52942147028951,-8.519425990321047,-8.285515304473135,-10.345360829184878,-10.967168066102362,-16.627510954128038,-17.203891422372546,-1.9139582967086812,-12.2770145875974,-2.179825038420094,-15.952416564358671,-16.166078963897284,-2.863813707825338,-2.9265419404529682,-4.608024815551639,0.1579407673132538,-2.998352253383186,-7.402854181987049,-13.382489864920345,9.262320767160261,1.914913199886084,-3.14937515942676,-0.5915220571970233,-2.1961725478423357,3.123062335373436,-43.364980008987885,3.3901021908781743,1.8571703581602748,-0.20091826781498545,1.4987561808056507,-1.139684589659036,2.44303790476477,-2.822499636019015,0.6358618694347782,6.366532308361916,6.24960312218222,10.817824591851792,4.407711278625637,3.4994094646660523,5.4886017970964085,8.990453561329126,18.256906517036477,0.48720455109721694,7.266044902040738
-23.72604796280402,-20.561065638617897,-24.149816356354847,-27.177610718496506,-29.348758959039237,-7.314276866368866,-12.965095194430624,-15.609548031744914,-10.261306575015004,-15.205190539284846,-17.16814585863902,-8.140283626594865,-8.442168113236693,-7.474044601289663,-9.450933175483655,-9.928484964344229,-15.036850806826617,-16.374993823878587,-2.034787468697633,-13.086724655797898,-2.3265150914496777,-13.960538635252709,-15.53035344485647,-2.9098386164562,-3.1222135651050307,-4.579223200704629,1.0336415033859465,-2.019500271382241,-5.891367131830057,-10.868729175864484,9.295347684375681,1.3612990508094276,-3.3442649883457465,0.28335717404240246,-1.5933785799384046,4.2828196723485625,-41.148117788310714,4.251648245452323,1.4472847736645882,-0.18769980088071403,1.6623712838659914,-0.25631223592303765,2.7734344201411805,-1.9788886659043612,1.435804416129669,7.611915888128282,7.511030282175062,12.848239597238763,5.169603382522437,4.542374452434534,6.580810449222713,10.535459160647296,20.11397793687412,1.8892093558757361,8.822114640144866
-23.05749455525981,-19.191542852415242,-22.573216891890503,-25.45084410344727,-28.794015526553366,-6.2074727031889285,-11.71530259411919,-14.228240427503117,-8.774084918571871,-13.335683287487013,-15.535868781673118,-6.997931986642751,-7.59178123817664,-6.197078613767328,-8.133928391375516,-8.442459322019019,-13.16952615438979,-15.996289496802273,-1.8167627745750479,-12.746591347727056,-1.690993753169134,-11.561855644777134,-15.319672256746877,-2.343599291301936,-2.3380883944589934,-3.8018265207066757,2.409514795759324,-0.787214748269837,-4.1685097232617,-7.995538979643482,9.36873472083796,1.736805526898105,-2.776063084477962,1.7519886791938184,-0.48628933047646344,5.583586781900641,-38.68553751849629,5.144331220953685,1.7271888635756518,0.7341327031601761,2.4694180799071175,1.0010046536753567,3.754035590239689,-0.4696830443014022,2.912461138776425,9.246293073236073,9.140969174747116,15.347229368586657,6.51520070018717,6.030179610022199,8.070992390790373,12.241412831421759,22.27499302522913,3.8869239437039935,10.924509445783388
-21.984280589824404,-17.358297315084993,-20.686578338564374,-23.08272495538059,-27.614392332298795,-4.502871436929729,-10.003397206518915,-12.430354189804973,-6.976910179537936,-11.212181177045233,-13.985189198138388,-5.273737163081108,-6.102293808362116,-4.60849754570547,-6.454493634098052,-6.579994303510255,-11.186442883300288,-15.889446341805677,-1.2303680451813892,-11.279486201037749,-0.28162605740377256,-9.232129512681883,-15.351830943876019,-1.3204250696956747,-0.7002486527680183,-2.2661237368196088,4.210605921008363,0.6487013490464343,-2.3527120860171267,-5.504966256846012,9.398262863055908,3.0232272629923402,-1.4437265834143824,3.665368573521035,1.075373753867442,6.904566735110201,-36.50280444328115,6.03926419857965,2.681084079222668,2.4560720192701844,3.8722187517821736,2.579555144028686,5.238003477210379,1.4728582439798121,4.936021614895857,11.099341151164799,11.019378655256025,17.89180474647548,8.182591037364215,7.756693347121142,9.808872194436317,13.970843149425189,24.47721800809346,6.2564472906173565,13.311056348462868
-20.64327415164785,-15.332722037442554,-18.723914477165266,-20.358672383699243,-25.800919367746047,-2.4673084070325846,-8.102884161429234,-10.421380216450721,-5.006860343031247,-9.067270368700425,-12.64911246787357,-3.28956483537663,-4.258090904592708,-2.9056058233601,-4.548851531163983,-4.493532425744662,-9.299084408763648,-15.807138455168758,-0.2857932653004478,-9.041966216152455,1.6584854214574802,-7.42219824393198,-15.396481514051608,-0.11550568490658142,1.3930200917654496,-0.16743413587686762,6.268916606207147,2.175724115608106,-0.6160942090360213,-3.9851783930001714,9.38288553903492,4.939426999288041,0.43320305564720396,5.764824258999218,2.924820334011761,8.079579335121528,-35.15268890014127,6.817936391646002,4.079660425893415,4.633506736946796,5.667656735832243,4.361206990244564,6.960615629378388,3.5129024313991257,7.255222058106829,12.959380561794118,12.942939316227482,19.995404275111888,9.840969012623365,9.471167827995652,11.611814274664017,15.597872029798417,26.41356713526107,8.70409241579593,15.650302269595995
-19.22849853594118,-13.419243033111705,-16.870873799188743,-17.621746041968336,-23.598110879879155,-0.40715593663686,-6.2951405899525,-8.423803880606496,-3.0071155313901565,-7.10240712405035,-11.57604517909778,-1.393631450480736,-2.3898679227366793,-1.2659641397217816,-2.584923817663722,-2.369078727935307,-7.684830652943011,-15.514702278299648,0.9509202077745393,-6.578186815568378,3.7381476257014894,-6.387109935462103,-15.242851762469162,0.9780790636784702,3.4227605175267177,2.1575403714928902,8.378847622447413,3.6728801615609976,0.8894401281548965,-3.646595472168001,9.394037903428938,7.044059420421086,2.4957327023781675,7.768113959570245,4.846002383265674,8.990812358220525,-34.63625182271588,7.346460294710839,5.576940134262344,6.8124662702411,7.573609164185485,6.2091935721241915,8.613719804779524,5.320098926381724,9.574615163998043,14.645586476811792,14.695882223614165,21.2877412341727,11.201350528428105,10.964266801284946,13.32979998297763,17.048970362411143,27.841291513363103,10.94530254731201,17.656230730437365
-17.925548526829367,-11.859182751228293,-15.21353502128381,-15.169058321759472,-21.398880590823524,1.4348307241885525,-4.7744464531693795,-6.611765357087493,-1.0797862631737454,-5.412997356646683,-10.698162213494083,0.1655574561422175,-0.7565609133819166,0.20621893474769915,-0.7027541223383573,-0.3681252902447523,-6.418457049832598,-14.863097766198557,2.350002252616998,-4.408059547694609,5.554666238818373,-6.095423128828326,-14.757038968149567,1.741676697053903,4.936553737138092,4.335166022256255,10.35029765456617,5.059646894958957,2.0951719995445663,-4.24589664658372,9.504911059460674,8.882081020827407,4.368447357151889,9.459954311038214,6.649677076871889,9.642564235303102,-34.96239707964736,7.549470758548855,6.838663148229315,8.586104211753103,9.320688954811153,8.007067260584245,9.9331015226238,6.674182539532288,11.642629945418907,16.06519985821229,16.124399057711116,21.650594147937664,12.105556711748424,12.133796358799525,14.883133154939845,18.311256544593437,28.663599375204576,12.769420735619345,19.171014922025464
-16.85423734268144,-10.755052351251017,-13.728983944643943,-13.166497873040196,-19.58678864910262,2.939008051461945,-3.5877940633394916,-5.060102365687379,0.7449997871089691,-3.9579838199450013,-9.850514509723293,1.3069207930212632,0.5414600838522766,1.507602434517652,1.0290939375525183,1.421484563867899,-5.4370373605287385,-13.820542274465105,3.7464483362891916,-2.833261949560954,6.8376642014649915,-6.234121939301318,-13.905624033647218,2.0996983160262475,5.707878372959162,6.070664852750708,12.056927223160535,6.327774276879329,3.0525332701650068,-5.166338314375953,9.712474032951203,10.134210081599004,5.787138091130038,10.754773680426938,8.22900056950367,10.184191102722805,-35.91434261047371,7.4727939736506865,7.665399631578072,9.729972658790512,10.738235983282301,9.684712456259431,10.770511521744567,7.5287428529764915,13.318150645111615,17.233167471601433,17.189108395593735,21.256444720304216,12.56516367860851,13.00941374035151,16.268590127659575,19.41620005943815,28.957072461322298,14.081157267079575,20.197802881845128
-16.044228041107502,-10.049073139367174,-12.323260585685915,-11.61711138870945,-18.398420372536332,4.095994396418751,-2.642023993619973,-3.7370145361466145,2.497582694664163,-2.5869976751887815,-8.83458660198509,2.103855500219652,1.572407329910353,2.7195561133280672,2.6217499299435842,2.99724630711589,-4.5576511008094736,-12.462164848116942,4.98768894451206,-1.841485787700797,7.540282407337069,-6.315452515543662,-12.7493433580782,2.1353469783919565,5.805293750120119,7.237631402876534,13.463482369234285,7.540991335529404,3.9246319546147723,-5.6271671331684905,9.911874904878033,10.717234149186062,6.683080924234976,11.709694438626443,9.582801331255311,10.867791346479326,-37.14564552700344,7.277819610778019,8.054797383198048,10.263619875017156,11.80009464526498,11.22524488480424,11.114416928343605,8.001852810862415,14.587155836590098,18.245871095748527,17.970364296144723,20.494769692586935,12.730427124418924,13.7201462762724,17.531162313474866,20.406719032612155,28.92760837247335,14.905130969448056,20.86356996383587
-15.43401386137811,-9.554784154243954,-10.885519791465654,-10.376885194252853,-17.84347961006487,4.954029998947059,-1.7555751359251923,-2.5333234894151326,4.242553549292604,-1.102227061443623,-7.49406816555754,2.7125927312322493,2.5234726594629158,3.966394517143319,4.15059271718671,4.429509243614507,-3.549845098915342,-10.937939771674795,5.96600327997974,-1.1522556218043962,7.84142996898986,-5.853244519106283,-11.417038067519952,2.0348914937124705,5.542369162857798,7.89873133115799,14.614620287251153,8.798792640635773,4.926541068298052,-4.959068323944288,9.91927851022448,10.78211150268843,7.181160189564467,12.486762008847483,10.797514893033492,11.956897197889889,-38.44418629292167,7.173720481077895,8.168985552949994,10.412316750071334,12.60725117220506,12.646173010672872,11.074473768264816,8.319820722475196,15.543304711582007,19.232890870488887,18.63788215298937,19.82815354638872,12.816652276195477,14.432292301279167,18.7204917825477,21.304267137644942,28.82747721731682,15.352268304081417,21.337720202198188
-14.897300063915013,-9.02152577110381,-9.335641553520858,-9.216062691935289,-17.715176605180364,5.559073427894562,-0.7388845688801924,-1.309472454095613,6.0429796843693735,0.6606760992103291,-5.78074719695598,3.275843741659927,3.614961900516126,5.360121122943385,5.715382512453603,5.825708620621721,-2.224255391862031,-9.420465625810824,6.648121077540537,-0.37115565091337244,8.07230950731724,-4.53010313419351,-10.061512310064629,2.0112529524806164,5.3460750978431255,8.269282613819286,15.612137977985338,10.193184831333504,6.250491551827555,-2.8332103615158344,9.54811544791266,10.63255701126267,7.53433459231256,13.284335130593082,11.997471344028812,13.62123575803585,-39.5710460755698,7.32853710890889,8.250490512380471,10.500724048362368,13.336558854513829,13.975965673764547,10.833238536540067,8.721137677653791,16.336317680656958,20.300151144431325,19.388559919789863,19.624931865637016,13.016682714177747,15.278755568202833,19.85886232721072,22.09975319871641,28.860644548153587,15.575025254156735,21.756253278847804
-14.288109910964392,-8.218529388751978,-7.656902873211153,-7.907265029205146,-17.67772302421574,5.912282455772887,0.5223928276024621,0.04367389678655009,7.919101119903732,2.762499743908551,-3.781424139750835,3.846551918020737,4.998231370885682,6.945072189220587,7.3909132992328335,7.278414474319528,-0.5073746941384529,-8.056841006380363,7.079870915938184,0.8147312981313317,8.590534143204085,-2.3093089004179386,-8.8185035728488,2.2292970848410776,5.591094764957076,8.637158169995223,16.579586008307867,11.769207851086216,7.9959391944898695,0.625648579924686,8.71630790099774,10.596084331340215,8.014737640957168,14.263862302460543,13.292304426658381,15.86353342231894,-40.469814398433016,7.781390861018492,8.506421123354365,10.81659242663941,14.161198098969333,15.236381187313354,10.57765698533892,9.35985807283915,17.102511055203436,21.48507407946007,20.368727795558996,20.02897199241564,13.423474740012107,16.295532420785626,20.920362891112365,22.756886870284227,29.103722501438504,15.712405171451145,22.16303651976632
-13.47590302518766,-7.005373233914867,-5.893983731782279,-6.298020811887344,-17.389067100649928,5.982853612183488,2.029914826090283,1.564499381927905,9.83180246713646,5.134305322641767,-1.6901587095725632,4.3745032121574745,6.691705007772059,8.678236191076136,9.1923366045349,8.832666871709996,1.5247224798709444,-6.9393032688908045,7.349095596661462,2.469608490696834,9.64304440916457,0.5525775503219106,-7.778003491659696,2.7489230989998092,6.457864630599574,9.25415180263716,17.620507117381553,13.500901293877883,10.124149784521528,4.872492837562361,7.529961657267514,10.891621794555945,8.797535685461526,15.493009557685804,14.727181776360643,18.501224425841365,-40.81723576053369,8.413523284057144,9.009121593588336,11.497517531563478,15.175866219361048,16.425824132607847,10.445677861145812,10.260106659865855,17.9177778688049,22.746260281415644,21.621263632260003,20.924377855144353,14.003708756278026,17.407221895674166,21.83886031809207,23.22694588133269,29.490361036634546,15.847900860565883,22.499937132069995
-12.371233484849329,-5.361507323130343,-4.124655701028879,-4.354903665833955,-16.61784347897289,5.765985767897606,3.6815919921436153,3.213744770132428,11.691147152075379,7.598968604873351,0.26078645131653344,4.757944441241218,8.57687924942171,10.441585173792037,11.06264608205162,10.46955191781456,3.6734185491052314,-6.089516599419034,7.543462010671796,4.360345903283752,11.278406007188014,3.6009541702040555,-6.9643538191628895,3.521908302925786,7.881922932892317,10.25773678488948,18.79883617705718,15.303093206257158,12.465650836318089,9.113658549280188,6.309970108079924,11.555921055942829,9.903081841791892,16.93066127196316,16.261138392166334,21.21177254207481,-40.27085750345907,8.999597359603621,9.673408816128175,12.49136944926245,16.37059396474149,17.520103905695688,10.494722746435945,11.313610640737888,18.778797449849698,23.98131783400156,23.062112275244534,21.989922515455127,14.621129073894764,18.457550308311443,22.544747310600382,23.478835941456534,29.84812013412158,16.00337349458086,22.65477274357827
-10.94350017776769,-3.3804136588667824,-2.430115487412402,-2.1732527387750373,-15.302292885958028,5.340591760769341,5.314427176293623,4.887120953105856,13.377844566559476,9.923809437676534,1.8779574714266807,4.924263337216452,10.440814909536423,12.07335640418709,12.886268181956064,12.1079266189696,5.689402882398592,-5.466824958428684,7.713504105336876,6.045925397287313,13.33817225976222,6.330429857283047,-6.33925217678596,4.427557001154929,9.596094803236953,11.63744757426799,20.127576656832623,17.06137762775717,14.769507685609744,12.54899620089557,5.5262548193102345,12.44551130629242,11.202373556682613,18.45117289692051,17.78734964669519,23.630626780372715,-38.9660327285072,9.309435959307617,10.298431688619786,13.594383881224534,17.63820263987914,18.48420537308645,10.699949246256828,12.32783075714967,19.608889069424666,25.064421604988965,24.494120746935124,22.819899508481015,15.09104925077174,19.262302808421314,22.995787765757566,23.517225717129193,29.966598887190514,16.150421293478598,22.52652467981838
-9.213650006130834,-1.2267997723488548,-0.8663736443856045,0.06284238440602863,-13.530336063071935,4.9085429882509235,6.777631593119152,6.457591448430633,14.782335341630324,11.8930453273522,3.0694118483995623,4.912703955308409,12.059180387405936,13.425910089688339,14.526756596579611,13.63678701852696,7.355620767497945,-4.99179751485019,7.853165724874684,7.0582206355871335,15.520739417810606,8.334219665929808,-5.824744055325061,5.326352159834498,11.239664407622202,13.244585953280632,21.56680000704086,18.663050910419365,16.771835789729803,14.601023810455644,5.64167294164923,13.316744061483327,12.47699198276947,19.89196562028562,19.171939537936744,25.45955159668877,-36.85134889269014,9.214876841210488,10.661777986040738,14.548524346593371,18.81922817745072,19.284422431043737,10.986817600907685,13.109693470408786,20.30144746131711,25.89611621491995,25.67027019144532,23.076931794069495,15.26103845016241,19.684259397146604,23.202777705855038,23.383626259318575,29.684767807765027,16.240996349786812,22.086153105064994
-7.248390328575754,0.9142562056052128,0.5376404031127457,2.1335894788832164,-11.480916374670212,4.768216714308297,7.986803507795279,7.8158074396501,15.835696374844664,13.36572349596421,3.8652419015525985,4.89829468721107,13.273356339681845,14.409050821220207,15.864281248646618,14.945807760200406,8.558660511438752,-4.5623716178073,7.926327992033855,7.116848321453492,17.493192704111046,9.419042147712005,-5.321138001358637,6.120768382010786,12.499598181961947,14.858156100721652,23.04329255922488,20.031010802535715,18.271304804659362,15.06769798341509,6.930762625641415,13.94624940584162,13.521253059679516,21.114196593221685,20.303790545491694,26.55168766080715,-34.03237005148489,8.761121693111003,10.625647209801322,15.159138037547688,19.77365484931414,19.91075570977974,11.267663304646957,13.536660253223971,20.769527960759266,26.430365283060986,26.368207210334482,22.60211441757444,15.07179960376849,19.686225554339536,23.233801267722978,23.136690233482486,28.945485400700058,16.238198578682177,21.400133950138365
-5.168505414624969,2.867983984590172,1.7554600261975672,3.8247540637790216,-9.35847368903963,5.213030263564926,8.932499772664997,8.88785992675961,16.514818542523603,14.289269216743426,4.379272003200873,5.131238851672382,14.026815729747808,15.001885442911307,16.816326715808884,15.943311744556908,9.314443990950089,-4.0743577134036935,7.913314115088983,6.266417668781509,19.001656131648524,9.640195478711927,-4.733097138601506,6.78383405153618,13.212033630040986,16.261040712715587,24.46397998082095,21.135327141249192,19.17847583947251,14.155615400893875,9.341916099856764,14.22896642103068,14.224204791694287,22.041358193842477,21.131427047069106,26.93573641321243,-30.968197952563113,8.174471786404766,10.19063720904493,15.370821868578837,20.42973250347417,20.379848117964176,11.474047540137105,13.595532400717115,20.975025549722258,26.673950647333605,26.448827421158764,21.44440297040372,14.572140154803545,19.339913628439934,23.185961334416415,22.822161301346693,27.80199965117454,16.13475012636369,20.603658224831946
-3.1426170333054824,4.494856697606515,2.743812763896428,4.970593142692728,-7.3353383891736526,6.415182463190307,9.66091600900971,9.646290797804763,16.83732808723313,14.6857189398393,4.744052327368008,5.838080195698101,14.369082445438943,15.251908974222756,17.34691589367892,16.570894497860525,9.729285194895425,-3.4559896139767057,7.84408709646028,4.880434265697035,19.9399097592945,9.237743827403818,-4.006434300045813,7.3473484002200475,13.393424927214276,17.296140141935442,25.722516446843585,21.972857184839608,19.512924715774805,12.374979032228225,12.462778213034156,14.223086528105554,14.601155980333488,22.66585645411789,21.66814765576646,26.772458472836888,-27.951407324931576,7.763149922064935,9.489779760168583,15.277521548845431,20.797830292298674,20.724578980903896,11.584893143299778,13.377566944467205,20.94448054750323,26.67452152148821,25.89359357536693,19.818388558864598,13.903795032434086,18.8043313837444,23.150132999773827,22.452489258324388,26.383958683878873,15.959490153869844,19.845136245291016
-1.3686542616414867,5.695981644157339,3.4266997917628137,5.477079019255754,-5.537510308575974,8.32826005500319,10.231301819323203,10.098115854091464,16.84131333356948,14.618757265210467,5.044218609318605,7.11034752468186,14.420139171687973,15.2476653427639,17.461751821420126,16.803722359215353,9.935455652001401,-2.6900794024585197,7.815252259266293,3.541168555251257,20.362632600193574,8.520953365743296,-3.1481089293999514,7.872165552410655,13.206663168251703,17.901922635015254,26.71361526342203,22.542717855411293,19.36753701700879,10.34955327830449,15.617158515643368,14.119172454250045,14.774012814071856,23.032834669436774,21.976093472938533,26.274752096772616,-25.461872165655446,7.764192818379488,8.728023919975588,15.07596018563095,20.953716153057456,20.989294631389495,11.62732052216769,13.032468713307203,20.75589713405101,26.48647813431088,24.799027918541093,18.00486625502008,13.253661084574404,18.264744732331998,23.17252789976303,21.989579208668015,24.83103394445891,15.752497194919581,19.212096413096987
-0.05404543714395538,6.397763318011371,3.6986483654344147,5.3192023261184005,-4.073519581847985,10.650624572335866,10.662588992444093,10.259579887338937,16.55774589352711,14.147269355215352,5.266250167333515,8.8240966396583,14.308769306279258,15.075984759555771,17.18672258177935,16.638031016868357,10.023887963902197,-1.8242235397400153,7.976257946936995,2.8189332201898787,20.4362297296801,7.756067931085827,-2.231348174106248,8.404437759195881,12.873999963465046,18.10996760623272,27.34695169189831,22.8262553057201,18.857926019130204,8.620308218991354,18.06533168704435,14.150325396104503,14.903706530362996,23.202293534559395,22.1252093747309,25.61462948312139,-24.031163845769836,8.230932759856575,8.090656178526752,14.975208294646496,20.993875792802626,21.206884003791366,11.653685141840782,12.699354425835473,20.497295869381777,26.1349083893641,23.32731780012533,16.23733127932922,12.785148530044793,17.85817196775515,23.228447444268102,21.35268663429695,23.22753052291013,15.53383801055545,18.67877062699489
0.6147877719620529,6.545142839412804,3.457051171709373,4.531131625885024,-3.071711891526543,12.889924037132078,10.90490427139811,10.137968586681666,15.992849540215678,13.297678822357339,5.293677580479102,10.646060219848941,14.118924115515165,14.788661776829406,16.54693309342281,16.078237639217058,9.990266088596158,-0.9812647025236627,8.468281030653898,3.0574460707772766,20.352002428098032,7.075017754006559,-1.3942546246474237,8.934740656290005,12.582819629977845,18.00563525476159,27.553110802160894,22.771017303797596,18.063852930382097,7.4808829936374694,19.238727423376737,14.479419309996608,15.103984917305198,23.21080306165384,22.145629717015865,24.85556012166628,-23.959866074333203,8.974417227188225,7.666350528341194,15.100042176821795,20.978136215803822,21.378298217120445,11.710741076139673,12.444047172338264,20.221586809790608,25.59625609877424,21.641468894160994,14.619311624069699,12.582490178670025,17.618581897817425,23.22082084065686,20.44566042378558,21.56100215747685,15.276322657886826,18.098500048031415
0.5187164443632282,6.10654526119048,2.641608745059087,3.194154935420098,-2.6970277087032626,14.512235370234572,10.855731945374256,9.722444634312925,15.125721145261894,12.06972965676138,4.950253449929413,12.133158703173482,13.863230088742418,14.389184799429001,15.562803632943433,15.133490288788515,9.732414152319077,-0.35115564328586846,9.346479438186664,4.243314736309863,20.244540739093505,6.442221101616067,-0.8242479201798787,9.388706761490552,12.42093723743275,17.677124490494965,27.286495790860883,22.296446592559757,16.994024049734147,6.906584641512917,18.93111170413425,15.111496489216822,15.37699110620012,23.04871575650921,22.00113229733087,23.93835603654631,-25.286761365029033,9.603032363126166,7.417623821492265,15.433826509480998,20.89020438847308,21.46461255317993,11.81620412325186,12.23475722170405,19.916729836858007,24.796606548724696,19.85044477076373,13.102029914703376,12.630160989266106,17.456274638811134,23.001595301930976,19.174428896384917,19.731770229685722,14.885330534607888,17.23442795166474
-0.35474127502910613,5.088047146777225,1.2708347772115751,1.4259831881616982,-3.1270891531754996,15.120449363891742,10.402892843619071,8.995154024117738,13.925519753783194,10.462486083104418,4.069734439450151,12.885560025335568,13.493486208383215,13.843605527844195,14.256634837351152,13.822535406692648,9.094513453353404,-0.15666453512129142,10.533666116095631,5.995325311407624,20.146141766551036,5.698793511155117,-0.7199174855939194,9.6540147877173,12.361686542139216,17.18113331856379,26.534799550309373,21.324591861878456,15.591795918870693,6.610287466990937,17.379889625732048,15.884317651444416,15.60738520380366,22.65929968786727,21.583805087471497,22.71757916450973,-27.63925822298179,9.661989863241127,7.223971238276661,15.82838687478872,20.639844917910956,21.384153319003474,11.948674572002265,11.958140123870248,19.501679038423305,23.639195431062028,17.976425926099388,11.526830316948647,12.821752799255183,17.184722520567522,22.41581497260604,17.474727130030068,17.60154532792692,14.217612880923454,15.841968088127539
-1.8973300432852016,3.5527298062919854,-0.5399638540823666,-0.6324959282307709,-4.493819291185534,14.596864242057395,9.479765222145698,7.952535730327617,12.37622028914704,8.506651098723298,2.565275980124109,12.695008651451662,12.936590731691568,13.104797468930458,12.663162038413398,12.180817538502751,7.937898008974069,-0.5970392482472517,11.815897669662935,7.7105290896524,19.99367814234908,4.648248896727139,-1.2393825055821441,9.62434984061837,12.303650225462878,16.529185549040818,25.320470743031414,19.813655696038797,13.771091535788115,6.174505520490199,15.191070509064076,16.52783838874637,15.604239072057656,21.964352680986593,20.74429527279379,21.037163697235307,-30.680076745017967,8.803750817211116,6.963149514119099,16.066207577846225,20.093938080233446,21.028622026227318,12.050223313039464,11.466507135053497,18.846808529191115,22.042626721266856,15.957952518634167,9.701427556118741,12.992954905494727,16.58063442482021,21.347564264096448,15.332812224463957,15.04925349736799,13.125679642303147,13.759622053210673
-3.8944325553258583,1.6280392956929113,-2.596690419433373,-2.835279751549969,-6.811543639206337,13.152509226671507,8.110952678607909,6.6211992281142455,10.499433074263154,6.287878788673497,0.4713752822784758,11.631422182907603,12.136239361206703,12.141894414229155,10.842393517949157,10.269859992262429,6.211012620811682,-1.787178093191046,12.893087233821376,8.797694029506577,19.6752862210605,3.1453229349631333,-2.455843752077401,9.245994183505081,12.133724388054823,15.693585788245299,23.69442916593114,17.785081881626752,11.468914393094694,5.212824456048419,13.133900070591139,16.77246951005488,15.173330105394907,20.900889078037704,19.350382734689354,18.810522720678897,-33.93016817788828,6.932046247535975,6.585995069423131,15.945137263510837,19.128353847236824,20.288611358230664,12.048082858097422,10.6422708193329,17.81810745260614,19.975621870385602,13.694878719536005,7.489614724143767,12.976611528800312,15.461123848604355,19.751506630185357,12.778472251016613,12.030423593426633,11.504428674996483,10.959219328321522
-6.072236139279681,-0.5099342899943622,-4.677445024946807,-5.054596731319954,-9.929662926562678,11.253831248536242,6.414989456182169,5.0614016424685095,8.363437050229498,3.941885605517795,-2.0602024312243317,10.022948382952588,11.079419404033368,10.956962462540199,8.877455412292258,8.176207624055,3.985033717438635,-3.7086698464433416,13.479957589139609,8.886121514471318,19.09062265544406,1.1604887492486609,-4.323201629292624,8.557079502817478,11.780838940977931,14.63530659239184,21.733399639508193,15.337915605848963,8.696298478172563,3.51479637961856,11.882752586753725,16.470211964269506,14.203437625034788,19.45158471690022,17.341907096751175,16.069827777325067,-36.64600572520433,4.261598275928614,6.166947880277988,15.359545047764037,17.688027208798474,19.08264693550795,11.87643536006086,9.444492649643628,16.32354493762296,17.47786303338654,11.10484256761825,4.868505892657863,12.647383498817632,13.748227800975197,17.659969827954104,9.869453446937282,8.599467864256122,9.330687604964051,7.556020249876235
-8.168752688558126,-2.6748828240029177,-6.599382756385695,-7.210660224729864,-13.543376519746165,9.448717433080967,4.565379488968403,3.3506562995275173,6.068249514497022,1.6176147172022952,-4.80767680603204,8.330903719488024,9.79591707911822,9.579616795894635,6.8524443061326625,5.991347488837753,1.4422987257951077,-6.186730770832729,13.410664512804168,7.947298586468856,18.195276900119147,-1.2044203490120746,-6.664815483951751,7.6873249755674475,11.235840436101036,13.332145108006847,19.528708259393426,12.633083151006545,5.558845524773572,1.1089593868560277,11.783569212436618,15.66118775658503,12.712202599471578,17.659153348097092,14.767083128329666,12.967521433645716,-38.41198857091425,1.2632505876211608,5.881097071924152,14.333532439605868,15.814208025102989,17.37983741926429,11.489283386210571,7.917297864272487,14.33956506165865,14.652307103877954,8.165111460799817,1.922772621168801,11.945240830353683,11.494682242502183,15.166310267745857,6.670941319998222,4.88403292060795,6.682852069725958,3.7681903617377803
-10.004279821717121,-4.718824464614862,-8.274508861280516,-9.288401188109408,-17.251990990658523,8.158892934912563,2.7298239906130695,1.5576175220037163,3.7219726889675853,-0.5681640155385301,-7.543132439700042,6.971445885640044,8.34180152035709,8.053923428412451,4.8303953843357466,3.793448045794292,-1.1823714538385959,-8.918874946100107,12.70585557741877,6.28836025045039,17.01054065970959,-3.762783883874167,-9.206403633588177,6.810235916804109,10.530868571775684,11.789293063642962,17.173885160097974,9.855033806276744,2.235141790600705,-1.7753048749612512,12.739178868577884,14.559312839404253,10.837107270144056,15.614035548801132,11.783465897980607,9.725706034462894,-38.90114268783543,-1.4927624657485286,5.91258377771514,12.9968401083987,13.633092321571109,15.207817433942806,10.871703161992016,6.170631035638176,11.925801062640074,11.64353044152388,4.938129007346069,-1.1886092722175547,10.886419890820061,8.87439408113195,12.398319152139447,3.241397478541093,1.045714653756166,3.732827708563751,-0.1547840054468259
-11.52821479065189,-6.577036746135676,-9.738980986699957,-11.33543174530121,-20.659271667049246,7.514939752643565,1.0044905007823663,-0.28667556209553247,1.4099187434176441,-2.5721358412773316,-10.094778558085231,6.148607551209253,6.764930752857859,6.411619555910603,2.831372060705488,1.6289654979843848,-3.6740828394121907,-11.542099863764335,11.571297803334097,4.40957893872741,15.597869257860598,-6.316194313339409,-11.634784596873088,6.07410004590052,9.697386445454612,10.038518745023817,14.758792968076879,7.171009278584823,-1.0653348222213226,-4.807393611855393,14.256725721600876,13.469963520915854,8.788304208081879,13.425378807835322,8.62242311858094,6.562980039008364,-38.02735020473622,-3.523994833569935,6.355566385147082,11.528130562727764,11.322097053697078,12.653922411929255,10.035931748689741,4.333581119858809,9.210206183265008,8.598251485639203,1.5585019167732965,-4.295698986970389,9.546768919586544,6.12614249519785,9.480914050484927,-0.37534371168932434,-2.7736749780214396,0.700960428893791,-4.008205800349993
-12.830981988505064,-8.292206510557868,-11.144159591942731,-13.445391196840998,-23.491445486724075,7.295760906022435,-0.6305315169307564,-2.209950049078409,-0.8364969706800887,-4.449410340382405,-12.389708940900045,5.762736371848067,5.0730663629778885,4.645578722502858,0.8143886057105312,-0.507913182900634,-5.900607384797341,-13.725582504402382,10.323465085151234,2.7906545197779544,14.007115803349258,-8.719533954718866,-13.673966876312223,5.5273788707023055,8.718666659684189,8.122092914504426,12.358283746294497,4.690780085506472,-4.1609134917106,-7.67827956889498,15.62299441341733,12.659839755667257,6.767164104149287,11.18388080388469,5.523724658312144,3.6238101297871768,-36.28960134090261,-4.587113542520217,7.134694102863584,10.076308416855706,9.046396622974328,9.841285431602392,9.001320426733642,2.493063998890647,6.340918501733363,5.618203503071079,-1.8208583479284166,-7.293096237916702,8.0233949735286,3.4726636227496437,6.501194766858421,-4.147097520723061,-6.497801890304357,-2.209191214291658,-7.686674577670209
-14.10315604541728,-9.99148599911782,-12.699184497788721,-15.71235921854019,-25.664868377648755,7.011406086395917,-2.2995322922165373,-4.287318324406443,-3.0399728213505997,-6.3277245838745895,-14.447531724985586,5.446334402505336,3.2373588405482123,2.714674605031193,-1.3050478097905889,-2.6651858986305155,-7.850215389820186,-15.272400808521727,9.2696524750945,1.709450294256888,12.235105641658969,-10.930680657490086,-15.168148756332846,5.072010037219611,7.506917207021831,6.064430551433453,10.02034826963282,2.4385177139452283,-6.954202629394969,-10.209988475419134,16.168882248576736,12.230846160231899,4.884464567546494,8.927135451528693,2.6594850893583413,0.9310805175528567,-34.327448907541736,-4.751761539315557,7.98419136199459,8.695885530087903,6.895056055179288,6.890526443200717,7.779952067257524,0.6620961421593663,3.44769391275064,2.73856206305919,-5.078954363784215,-10.161321108391196,6.406456128052073,1.0601971109464017,3.498285216047589,-8.035944185100693,-10.116605880911516,-4.86665633446352,-11.183416270624319
-15.555897626125226,-11.829504058220468,-14.592766632834042,-18.17500949606304,-27.280355074742914,6.095974418593512,-4.169088883754292,-6.604762519674087,-5.254894215693828,-8.345522937223661,-16.33592590196613,4.711282785864839,1.214724054750119,0.5667213497178182,-3.6123496213714454,-4.902345412141583,-9.61068790298443,-16.173541315355767,8.5860699342782,1.1489735887618822,10.22030463796457,-13.001920612882738,-16.121424123922807,4.473939341463128,5.9318750042520625,3.8618345373886185,7.762272507036147,0.35698285753994774,-9.444066620720976,-12.38872123041206,15.528333227759425,12.06573781613837,3.125385552718874,6.636553145068044,0.0877674245313001,-1.6033887916698615,-32.840521541099804,-4.3594240425789605,8.52343005854214,7.336848408994659,4.859214574722652,3.895905430567642,6.374630628373064,-1.2172873349986346,0.6170659934834304,-0.07204614549910637,-8.156062673895793,-12.940208945332003,4.7606720216825,-1.0760721647885412,0.47257175135778984,-11.988181399749244,-13.649775292802234,-7.244826973992731,-14.555929162252655
-17.340612639432475,-13.924601415813509,-16.921653932234346,-20.78085313782591,-28.558630382998754,4.1316576746853695,-6.369698057320174,-9.21245066163474,-7.538435722709125,-10.589149116555118,-18.11836085473828,3.1477591119735604,-1.013905259159229,-1.8264742008001176,-6.151009505564934,-7.257260835256642,-11.3081428686761,-16.598848983601673,8.240351750893605,0.8168227242167334,7.87068078853014,-15.018065907195336,-16.684756823603422,3.4188966306719792,3.8770393723071175,1.4916700136801206,5.570864568295817,-1.6637561270310064,-11.700999789043058,-14.307348248480924,13.76765803324718,11.85828795283362,1.3659769515002216,4.255244532587989,-2.2588758010084575,-4.125222569836046,-32.372380532707126,-3.889606554201623,8.389282965386265,5.87820004053387,2.842983386991036,0.9071926362887208,4.78412776614805,-3.242949172897604,-2.1189115986601483,-2.886208072191712,-11.061122584571526,-15.679630471669078,3.112074368400929,-3.0069770126289503,-2.592033678256347,-15.91929474951025,-17.09621929052138,-9.4154958692342,-17.864306578706685
-19.48485342177843,-16.302643715566006,-19.64732090588769,-23.383007829001258,-29.73411423301101,1.0329438504364727,-8.923940961099266,-12.08020807630415,-9.917115078109111,-13.044798736903589,-19.811489369027072,0.6075550130624063,-3.4016007805866963,-4.432837044626016,-8.88873525417908,-9.717149753538546,-13.040024155815164,-16.83710132115972,7.996891588742466,0.2931433115523743,5.125870604596648,-17.032124016953688,-17.103553325842398,1.613831440612954,1.3054191016524819,-1.0673680669860954,3.4072240553698085,-3.7460401432244756,-13.81851715141808,-16.06952414395461,11.358254336282222,11.224527517663407,-0.5702604032518055,1.7187261020271603,-4.5432452521390445,-6.76569045441725,-33.17255335419094,-3.7898208780283227,7.372624642093502,4.191588064042216,0.7064989582657857,-2.072994685106745,3.016704255826971,-5.4970550873797785,-4.769135949571712,-5.774860980678437,-13.846871943988033,-18.379122429351,1.4546564692925212,-4.86406888691243,-5.7018669676624745,-19.70831439909731,-20.393498120745384,-11.511690788225263,-21.10620075808253
-21.87506705984769,-18.87887064181197,-22.60603470017204,-25.78180400045545,-30.95345016287927,-2.8885133094113353,-11.717410752716603,-15.08615478542034,-12.369550174375055,-15.591742236025137,-21.37215514508215,-2.7083308431167903,-5.828851787479698,-7.153726917055385,-11.714902693808023,-12.21609866045241,-14.823453141930809,-17.194324648407928,7.507468342759658,-0.7717459462098684,2.021799005693313,-19.013688749550294,-17.631164243005223,-1.0918406315931306,-1.6880847785529685,-3.8079494181859865,1.2144811874725177,-5.9845210299528615,-15.855894618344257,-17.69927173557568,9.010977510527393,9.856586211384357,-2.83062452318146,-1.0041915640398837,-6.953600299452205,-9.57220895391098,-35.325827098573995,-4.331768028318915,5.515706383423073,2.212060871876049,-1.670099748428016,-5.071415939704386,1.1029181540062698,-8.003204367487736,-7.360802551314496,-8.773223206229979,-16.564763746485518,-20.95089867199748,-0.238588220103356,-6.782582429322747,-8.839920896532634,-23.22106468962836,-23.40468867964794,-13.674371906986678,-24.202184272310234
-24.293449489580883,-21.483589910365644,-25.55929126512151,-27.791803079899363,-32.22124006963252,-7.003587439223024,-14.523860170776775,-18.03657946616946,-14.829731252040142,-18.038122837806466,-22.71508015485569,-6.289063406782141,-8.123413491921132,-9.839623002689013,-14.467964395083909,-14.651109943722695,-16.58755984654051,-17.884851071152376,6.44678179295067,-2.5156210370341276,-1.2866440481251056,-20.835334342709146,-18.440291964181668,-4.625481158214379,-4.881536056320262,-6.67795343177778,-1.0711095478761452,-8.422702244015667,-17.80350685604412,-19.088932625544622,7.415460203169132,7.64329417794498,-5.4666224757335025,-3.893420295051671,-9.633756126118765,-12.481066099855926,-38.39429217392723,-5.54429115647076,3.1105185059880576,-0.0286059114281505,-4.338278231972695,-8.12024093623999,-0.897555026190421,-10.70419711701804,-9.9142440262166,-11.852519447810822,-19.216075167785533,-23.21840433087661,-2.0014072395749025,-8.845335264954919,-11.959039462360058,-26.326835306791484,-25.938234603062256,-15.99218520725061,-27.012906702169623
-26.490057407310555,-23.92076736801406,-28.268059982497775,-29.310843588658333,-33.40646842467193,-10.55739679083649,-17.074654930160342,-20.712894653386815,-17.207109771942434,-20.187884560682477,-23.753797290535235,-9.467629223510762,-10.10522389830822,-12.32818846362592,-16.98452279551642,-16.915752813358267,-18.20218509109723,-18.954794187500553,4.650631537794419,-4.8034920065512114,-4.546022524987348,-22.308194852507334,-19.55997302081174,-8.67399251950978,-7.9769099271926125,-9.576456910571052,-3.5008469496218,-11.042809517632172,-19.575670345831607,-20.011457724096854,6.9908282000269155,4.729168228409737,-8.404789585556589,-6.878313250717429,-12.62483159113561,-15.33012469484181,-41.68311517507462,-7.2331218552223655,0.6031674396055458,-2.407412189658392,-7.253574210129803,-11.227715922534701,-2.898620599361891,-13.467426423737965,-12.423225773279972,-14.910645051188512,-21.722028505732105,-24.953412753958307,-3.8520385189173023,-11.04966976848525,-14.98395697684179,-28.913364774296113,-27.79798371912449,-18.459697246588053,-29.381008982507574
-28.274706654929698,-26.045635851003343,-30.573265525982897,-30.372145349789243,-34.31154938886252,-12.917643011718853,-19.157768693604577,-22.94295648803608,-19.421289326803084,-21.918895277200416,-24.450104721793352,-11.645580289138781,-11.65712856192444,-14.50294574283284,-19.157640417592713,-18.945301783072647,-19.531506953295384,-20.26727027008085,2.202614233294448,-7.275607536995052,-7.468741260389835,-23.248028467537587,-20.86102792882003,-12.742643835138855,-10.68055219179588,-12.369957030342398,-6.093528033826158,-13.769149305792606,-21.037108052383587,-20.2021878361325,7.736950717089596,1.4781809775172756,-11.462416748785756,-9.851774342369893,-15.836966686209394,-17.905479936174228,-44.63688980990406,-9.070008437189587,-1.5567770629504807,-4.7489764726015915,-10.2788860982301,-14.356229597750598,-4.807822672403203,-16.127188952014603,-14.848646077368738,-17.790645370118433,-23.928629373965553,-25.943478915635772,-5.782877417531689,-13.308960093724057,-17.82574789607241,-30.904297362600364,-28.841021362014295,-20.971461029101235,-31.187666059804847
-29.589354902899633,-27.821651397228443,-32.444220711489514,-31.1475270369213,-34.77663893231529,-13.783122202540094,-20.698936940854853,-24.659452502639738,-21.431603646684287,-23.231606023184327,-24.8438595815721,-12.497754557781644,-12.778080728472146,-16.336231453197232,-20.97229444653352,-20.742265646896637,-20.499457390760004,-21.556435299979917,-0.5765246655907599,-9.49992786325592,-9.829439584616125,-23.552320263915835,-22.105148072346424,-16.283123152240428,-12.801175049750782,-14.929711206717199,-8.821359076771472,-16.484270677238076,-22.056834287195098,-19.480425183842005,9.229639202149098,-1.6511192002678472,-14.406106548610449,-12.704279094246274,-19.07009429076622,-20.01132023326381,-46.721611962972815,-10.716618131308035,-3.079290772053511,-6.8936610422143305,-13.223180550301802,-17.416018339673982,-6.548689576500395,-18.532550889330963,-17.125346095034708,-20.30973708234515,-25.638698033455366,-26.0557354979791,-7.754842088337269,-15.4793546943835,-20.39278662038256,-32.2582927740665,-29.01558769171848,-23.34625362166947,-32.38674416824669
-30.531563487474966,-29.333546084184796,-33.9782514115344,-31.89877358312471,-34.76843336786232,-13.274096731321224,-21.791612228522684,-25.924362479938914,-23.246463262262278,-24.250074759530357,-25.049764259807123,-12.078815503255807,-13.596371009606143,-17.900493919435224,-22.50510143627803,-22.375871939392017,-21.127019871214813,-22.529912298638237,-3.2265699081601205,-11.146468088170035,-11.546842590598267,-23.255131606439477,-23.035582591722097,-18.851850395567077,-14.313418084572941,-17.16881383655448,-11.603298918235005,-19.046644636439297,-22.560537818064812,-17.855176555024872,10.776339621866555,-4.258368413532948,-17.026171292941385,-15.351871798095184,-22.06534978935496,-21.523069648967414,-47.84504039840081,-11.928581219291733,-3.9331123213010244,-8.754930511559596,-15.892741124948014,-20.27559335631865,-8.075817256897086,-20.585514969861944,-19.17739625545639,-22.29314244942006,-26.667278407591752,-25.27860113623986,-9.69842230132554,-17.406446383646173,-22.59577253744867,-32.95758628807335,-28.36635438433626,-25.369435055053124,-33.00765101215633
-31.327995458090218,-30.755785008968303,-35.35839097779095,-32.8904259874181,-34.418316567597685,-11.884784691368958,-22.666371229642127,-26.910567269571374,-24.910903887310475,-25.173515644610855,-25.22411179438398,-10.803406674741648,-14.339679766761558,-19.34407074535766,-23.88951001270832,-23.951527144779334,-21.52371352261822,-22.97858852241953,-5.291102656481387,-12.112590965234677,-12.719125762000221,-22.525312999947772,-23.470607075206644,-20.238943455562598,-15.359529327038764,-19.0657563471156,-14.311962021372914,-21.308793211790782,-22.557736942291324,-15.56165834008458,11.674502058654145,-6.133668856314314,-19.202116285766852,-17.744961984678984,-24.56700502308562,-22.408196500551476,-48.37101401403774,-12.585168504996082,-4.343088553794143,-10.340936406398795,-18.136227132085022,-22.786611257526488,-9.3849972162672,-22.25906826863422,-20.93133311096551,-23.60712489400325,-26.899041334249556,-23.725556374284928,-11.52674757495853,-18.96900165638717,-24.35096332372697,-32.9932870581097,-27.006307027084887,-26.845671495861602,-33.121315226836856
-32.25662320864652,-32.27873532088037,-36.78096635735356,-34.29176562932376,-33.99844293668113,-10.317015839539467,-23.60610638721801,-27.841508744297485,-26.478702492627875,-26.195918160620458,-25.51423001544955,-9.3053787032208,-15.265195924916465,-20.834418669722293,-25.256509711478994,-25.560161817175167,-21.843941176359948,-22.85358052354075,-6.463133717926935,-12.565179479453356,-13.595277762436943,-21.613138966103982,-23.373046714876594,-20.52182356934373,-16.196434471285798,-20.66532748995673,-16.79759086921615,-23.133568578278638,-22.1375184107775,-13.012981059050606,11.456602743937609,-7.311868638347937,-20.931357837376243,-19.862088512595903,-26.378622776796227,-22.71416344036302,-48.65825618465453,-12.672087486476604,-4.690583538055037,-11.738360534154246,-19.87399864470416,-24.812952528050655,-10.506138037449425,-23.583194013325915,-22.32423793909899,-24.184320221264002,-26.321378979167736,-21.596480999532794,-13.145646908969194,-20.103804009944422,-25.584673880061562,-32.36375634039836,-25.06893429458212,-27.65144802267041,-32.79638362899407
-33.5395460894085,-34.02327304110512,-38.37515999773959,-36.11041764149442,-33.8404695376261,-9.24465389385397,-24.839323234875767,-28.91156678512405,-27.978026803212508,-27.427269539815896,-26.008061326540798,-8.21732069452538,-16.567431038199484,-22.488250737167437,-26.674521658547576,-27.22870228253542,-22.226823424413524,-22.287970655101844,-6.6824909720503385,-12.878673820592477,-14.488251529388606,-20.777945948740268,-22.870620964760434,-20.033649063424004,-17.10260852391235,-22.05494939209256,-18.918343938541163,-24.40940439729307,-21.441726028231056,-10.696858095637396,10.045971746439374,-8.032633720746784,-22.31040744385619,-21.688305651074273,-27.401480671335968,-22.53575184973967,-49.05260772828021,-12.25252438724863,-5.353488981285096,-13.06220829463133,-21.105533515942568,-26.26317794169491,-11.480332508491445,-24.611277428802815,-23.30567068630774,-24.032889279084955,-25.028845675973795,-19.11561980111165,-14.468181060483289,-20.809541420754094,-26.240498206821602,-31.082249100710687,-22.66247956557234,-27.762507695692,-32.06359584892824
-35.256673909607265,-35.982316741493136,-40.148460432744585,-38.1801460413906,-34.22529729106484,-9.0977057784506,-26.448847205419376,-30.211377789662833,-29.385602186768438,-28.843325294772097,-26.70390407159164,-7.9598562350375595,-18.29530733705164,-24.31371359847467,-28.11286528125012,-28.886371099622345,-22.74144513035727,-21.548709096651912,-6.140627198766854,-13.474410183739927,-15.66118403115744,-20.206672980196423,-22.208675799265947,-19.233516974713485,-18.270838959262107,-23.321051700365828,-20.566486171259974,-25.067699601456443,-20.616565941900117,-9.036281999393145,7.782968043777628,-8.62621450808945,-23.48374635795709,-23.19325526526128,-27.640975574090476,-21.976827352588913,-49.754923830562575,-11.406436696532122,-6.549832371085657,-14.391912040607725,-21.887419356943838,-27.11140694628408,-12.334506073635376,-25.38297239460116,-23.83834699557503,-23.230528180007028,-23.19769238880005,-16.470117573193164,-15.43019207863733,-21.12760773874555,-26.286135163763774,-29.182922430790274,-19.846706391674573,-27.247346930682177,-30.89838452351033
-37.30631982638416,-38.00675906024252,-41.978872508717984,-40.21042364684435,-35.2918088330224,-9.943197174213157,-28.33323704622581,-31.688911434376763,-30.62548043128851,-30.288475974284815,-27.513863489723906,-8.616255750618606,-20.318805278901717,-26.19008832596371,-29.4470959933198,-30.36999510679294,-23.36267014383924,-20.937032926628522,-5.200070351300635,-14.643382898898144,-17.225881581897283,-19.955444575767714,-21.660289489263597,-18.52854428877461,-19.72927296150383,-24.50556207697295,-21.68711336615891,-25.09846445294707,-19.765690343301383,-8.266207330818101,5.3021187921964925,-9.3671238744576,-24.575833551442795,-24.320574270264327,-27.183686905740217,-21.118603726031996,-50.86462997101836,-10.19575408564637,-8.241877636794708,-15.72280812250283,-22.29932337821944,-27.39812544134458,-13.058254549517772,-25.89619533189456,-23.897765832159468,-21.90953618514839,-21.038584674759452,-13.772260817785536,-15.993845895675058,-21.11225857669201,-25.721002833433555,-26.737896421006397,-16.642905665005017,-26.239130538902625,-29.244120162223552
-39.42312570339161,-39.84580473014441,-43.6519061561351,-41.883608089631664,-36.993398655664556,-11.491559683601183,-30.236983016516824,-33.16694467106972,-31.591853418762845,-31.531764340595952,-28.297192741886064,-9.924329640204707,-22.352727554251878,-27.895993583329943,-30.505128008544037,-31.469920359808164,-23.988978360312277,-20.683348501165046,-4.263411326862283,-16.427808982036595,-19.095107066926314,-19.951991310355794,-21.428671829452107,-18.127509070008387,-21.32433651174518,-25.58104121085515,-22.279829723900882,-24.56178531964076,-18.93272479659041,-8.38850524454335,3.312104865743401,-10.35720158200078,-25.630990607903524,-24.991086811763758,-26.16342260612856,-20.01306404153329,-52.32590147584696,-8.674957903167883,-10.140091570134247,-16.954923278217777,-22.416351996147945,-27.216421315026924,-13.597664443846712,-26.105712807797957,-23.476060846919868,-20.235313724196764,-18.752264027853673,-11.056260512623679,-16.153126267218184,-20.81031263681411,-24.587977660753673,-23.87464311718875,-13.074619258663244,-24.897419652865995,-27.061988242850592
-41.255648928899156,-41.22662065252358,-44.929466920423906,-42.96016894406972,-39.10735958526932,-13.223413685425923,-31.831009268134462,-34.400893575235614,-32.184137538958886,-32.3506838033394,-28.90733783113068,-11.393799540735873,-24.031286485819113,-29.174853428325545,-31.129868690398993,-31.998571194853366,-24.493275127715204,-20.869507817238848,-3.6389799462502883,-18.590013378568152,-21.003556417881907,-20.04518027251689,-21.57340032041482,-17.962293994599705,-22.766824170820765,-26.45163803159914,-22.387661950495513,-23.591907538873688,-18.111032950642496,-9.200864211805587,2.3528971200433118,-11.481776673197167,-26.590256097517013,-25.134116831359783,-24.72965026463165,-18.700807871460523,-53.80802766404915,-6.909161340168416,-11.805957643048503,-17.923045792756675,-22.289378512121147,-26.688348171992462,-13.873110945589971,-25.94759615689611,-22.594558614676277,-18.386874697206714,-16.50019918375012,-8.311407701419496,-15.936171229639786,-20.25624514555201,-22.979984031989893,-20.781098292343845,-9.221149778630746,-23.372057621430983,-24.386660671323593
-42.4720141707647,-41.93728030907768,-45.621100061869356,-43.349573378985085,-41.295437737244555,-14.581352517463932,-32.814600742594756,-35.154367142913216,-32.33988968234763,-32.60740844757376,-29.23184837233316,-12.495048896176726,-25.01416934720835,-29.809743211398395,-31.23187474296886,-31.853473789186577,-24.781314922777728,-21.404190857158454,-3.459341200590831,-20.691663169331086,-22.591611461104215,-20.076942781819675,-21.989546379320572,-17.718186917573743,-23.727549452974465,-26.98417862203932,-22.077927266022435,-22.381787733992102,-17.274966880391585,-10.383438984856241,2.610193788365124,-12.459960307033448,-27.311163293824194,-24.72699529136655,-23.029662547240203,-17.237169530209936,-55.28570139247415,-5.004142404832848,-12.81181014181441,-18.455442278443527,-21.94441555719955,-25.941927572465183,-13.801984382566673,-25.367057933103936,-21.307490113669743,-16.526414060727614,-14.384603182822012,-5.530396882725304,-15.388924830858276,-19.468071638305275,-21.022303385505367,-17.681175544058934,-5.245671463481266,-21.768767565016272,-21.34816865682526
-42.858156104303355,-41.889779303599475,-45.63684027863584,-43.12643464252855,-43.19341239858477,-15.153786341042148,-33.00525491834734,-35.274785838936154,-32.05280638261589,-32.288878692460464,-29.21388228592222,-12.844538982265242,-25.08371031804232,-29.68561671948398,-30.816845251082754,-31.051932228587656,-24.825174917461506,-22.058461481529214,-3.6659380276651734,-22.240843001326336,-23.517758135851064,-19.944129345341207,-22.443859410096792,-16.96684507086335,-23.94354790346761,-27.050051291784317,-21.414526848202186,-21.141940645968862,-16.411769435575046,-11.603874881030109,3.875405629891657,-12.952387972002018,-27.61131990879146,-23.812766424396127,-21.195818432566128,-15.705257250971629,-56.86604041241651,-3.114739740267037,-12.8858629659935,-18.433627484809467,-21.386553690012867,-25.077652108758063,-13.323013098720974,-24.3439599872422,-19.696228388283718,-14.765359491556657,-12.447183513345081,-2.74549582517811,-14.557272118492726,-18.447945420974403,-18.839853019593495,-14.78787290310046,-1.3816891710019088,-20.124954238751442,-18.148415986935348
-42.37982604261132,-41.141204550946014,-45.009944217138,-42.49010063138485,-44.50049216127762,-14.794365956648265,-32.385630441273776,-34.73671786710325,-31.37055093029796,-31.501212696921698,-28.851497758926023,-12.330077934284176,-24.208649261200893,-28.822504713744145,-29.9776853271761,-29.731641034186058,-24.664458104577665,-22.54716041664743,-4.064142825555552,-22.84892863261355,-23.557064572526162,-19.626912100045153,-22.66144439972563,-15.348314275865759,-23.297217617308664,-26.56497081651867,-20.438439398866343,-20.04827380731604,-15.53973454838139,-12.59796414826572,5.6381448438487345,-12.686141092149054,-27.3260536204689,-22.498969709797535,-19.337134652570946,-14.205404327233122,-58.59438481827044,-1.4195570282915666,-11.990925826258117,-17.82926145479337,-20.602313266534082,-24.139057911836122,-12.426235000468001,-22.908169530414682,-17.861500823394707,-13.148141245269272,-10.686153711669691,-0.04709153026007584,-13.481190453014044,-17.19762404396145,-16.530890063794804,-12.262824865155984,2.110666485969933,-18.415866675022848,-15.013331207886667
-41.18370903040772,-39.86019467068879,-43.873027877810785,-41.67793099584726,-45.04213755361599,-13.641475373361216,-31.093388155606036,-33.6372734679613,-30.37165459417763,-30.418893335156937,-28.177621020388866,-11.128834931733241,-22.550537360047457,-27.360096262562788,-28.851884916679257,-28.107229875662078,-24.374237105385905,-22.627289968535884,-4.428119770061441,-22.355145456350883,-22.666091352176455,-19.17372410724532,-22.4243385354169,-12.746758520802684,-21.854732545161983,-25.519668372134205,-19.164832250042686,-19.192301820683497,-14.704084979419378,-13.201432116023138,7.250919128172208,-11.565140672441139,-26.368345977116252,-20.931545536558467,-17.53814650359255,-12.827030132626254,-60.89111060772703,-0.058252927740969795,-10.327374673884256,-16.712636714245146,-19.570766300228534,-23.11096572328466,-11.164815225240162,-21.133036716925915,-15.9047882641762,-11.640429199602497,-9.071143131135667,2.426822906703566,-12.191270167728089,-15.72341280632229,-14.145489407156889,-10.16992130831337,5.014374407453813,-16.574244393286357,-12.115178082048656
-39.54011539840632,-38.26018416403344,-42.40576545564005,-40.86820298713263,-44.78256061344385,-12.034358206027528,-29.3611714307034,-32.15063640911298,-29.130294922572844,-29.20679142325433,-27.22947957403099,-9.616242404995845,-20.407367967875587,-25.503567384371852,-27.562809347168976,-26.39683563762564,-24.007977575853708,-22.170079654327576,-4.5942130515721775,-20.861796623203134,-20.982099559210727,-18.646873166209428,-21.64132556697305,-9.386020872753997,-19.84104392031898,-23.982743101020564,-17.595147507083027,-18.550447636625133,-13.945319377746422,-13.325774299514634,8.142177334681907,-9.707257108351747,-24.75708886838068,-19.24793677569002,-15.849409001500923,-11.608333837819623,-63.83823597369758,0.9219598167073855,-8.250855105904867,-15.223417246955357,-18.267704561651605,-21.925754913180594,-9.638781664475978,-19.1105458189896,-13.90226950727213,-10.134834698467179,-7.550420660562121,4.534023324417824,-10.702583925356947,-14.027103482611235,-11.676544395416606,-8.450526198000745,7.227244009470871,-14.514774149733064,-9.510627821648127
-37.74936641421556,-36.52850158594464,-40.777584438290866,-40.11220349351683,-43.79577055736502,-10.367290485313232,-27.433316914538217,-30.458876414565044,-27.687233547386843,-27.95095018783077,-26.022288550572302,-8.208438964597626,-18.123908221218148,-23.45990934021792,-26.171774668908665,-24.75235047273999,-23.550746317525697,-21.18633425355021,-4.514589045224769,-18.67594967163818,-18.760707614293995,-18.06507271659781,-20.373625052326815,-5.797822619020026,-17.562023790791628,-22.07535362236317,-15.732585129525333,-17.986630733425795,-13.265606159381024,-12.913108459133259,8.005138764196058,-7.4001898818226115,-22.605202070425097,-17.529896481651168,-14.272963784273179,-10.50524355545059,-66.95824643842943,1.5731731590052602,-6.139921058077192,-13.513367238575444,-16.66615244767743,-20.480436133378536,-7.96980737781306,-16.922009354566327,-11.888457128171083,-8.485717713941964,-6.054771354754427,6.17658172921875,-9.018315623627633,-12.107664889257281,-9.080045979561126,-6.949297176723003,8.7953095383544,-12.173047509306546,-7.133640272245787
-36.04884696445827,-34.778490028950365,-39.10089209692372,-39.32337129012444,-42.22151553379888,-8.953701921578432,-25.497640742253136,-28.69473350365339,-26.04622761374941,-26.635817747378724,-24.55188226282675,-7.209586476414991,-15.999327114403135,-21.38565762055819,-24.669139116710564,-23.221785455729716,-22.90264924703541,-19.803891576666416,-4.252592124071484,-16.192412328602995,-16.293900912492337,-17.366301111311806,-18.80289011291888,-2.6748010361159316,-15.315095147473631,-19.933683728486184,-13.595179804989211,-17.288475244960626,-12.603496054165246,-11.89838369990932,6.8889659927506,-5.007041815652369,-20.08581694686441,-15.774539483455987,-12.75879375369128,-9.394053308934422,-69.69078248699955,2.0456275975910314,-4.282420680286885,-11.69513902831784,-14.741762268223333,-18.671472724927998,-6.2797018958861806,-14.628889857973967,-9.859000339091384,-6.55858106723622,-4.509681479371459,7.3312298495420585,-7.148510891572729,-9.969977397369387,-6.315696358757437,-5.4626190433492345,9.892182137325923,-9.541191341182216,-4.830286014789049
-34.55407107230461,-33.04041494607385,-37.41770179796451,-38.32545771448119,-40.21910527474004,-7.938931541795867,-23.653665070046127,-26.915583501980727,-24.19556690397312,-25.17165782110613,-22.818496740877322,-6.714957452133101,-14.218034692932443,-19.364652133958835,-23.002666366494417,-21.75518360024503,-21.908693895044383,-18.212412041244196,-3.9237929373217244,-13.760450044989835,-13.83203741451597,-16.4178303494127,-17.16265150676992,-0.6545799805098098,-13.314178744645247,-17.677839230639727,-11.234491674016414,-16.23911688213548,-11.836745720246123,-10.216964126478118,5.174326779763825,-2.8575439284944517,-17.391656209558352,-13.907956317270024,-11.221289340794852,-8.111189013841589,-71.27915228235477,2.522775686824386,-2.8156596908155755,-9.818448926743304,-12.488526823300948,-16.43613490550283,-4.670888578650016,-12.280100947409895,-7.789841839833535,-4.284905814700706,-2.8552310997893993,8.054170871528942,-5.128277120767438,-7.637079060891689,-3.389643820932804,-3.8054431083694444,10.753595330440133,-6.6877156764218455,-2.438107140378095
-33.244453789605,-31.283872629925842,-35.71225656150807,-36.930681801449325,-37.92935611050963,-7.276411558429206,-21.913893660544506,-25.10746330798946,-22.13575211065602,-23.45062865896805,-20.850149283061608,-6.591760857246129,-12.822714475270747,-17.416457450003076,-21.11825528275318,-20.240523907779764,-20.430371673401236,-16.599940085197705,-3.6190456903107866,-11.586548951038157,-11.538156404060647,-15.083557336679519,-15.662939354120818,-0.10548885421314358,-11.651316444149058,-15.394522758136548,-8.74261212916359,-14.698718234508107,-10.827076172445071,-7.8651904832471455,3.447041668826608,-1.1687164762273783,-14.697031601777343,-11.834750939748629,-9.567562421350608,-6.5168830028106886,-71.10387101075264,3.1298853624449006,-1.7340741504094144,-7.880653823844742,-9.94400772051388,-13.789331767364922,-3.2099916562265483,-9.923769216425326,-5.660385862045153,-1.7010173497464987,-1.0619892123880263,8.458751831761145,-3.0262132366872345,-5.16884281643467,-0.3824596933455371,-1.879813787833899,11.59305522276822,-3.7567288446694143,0.12264081847926667
-32.00288044576316,-29.469218775553678,-33.946190253941076,-35.025454793101616,-35.46329323866344,-6.786654235585809,-20.24300250651722,-23.226830640842103,-19.911656343035638,-21.421395708668694,-18.731401641708825,-6.558894700781348,-11.740758214711835,-15.53042912541151,-19.01224662614936,-18.568609861424132,-18.416341757095218,-15.098560079116357,-3.3373974793136756,-9.704672332247114,-9.483471770365377,-13.302384674840741,-14.426420691039672,-0.9903852516936822,-10.301160803509422,-13.134361152388331,-6.239443857195858,-12.65925924176904,-9.473131888510789,-4.967110296256637,2.3239386456744358,-0.006912298202009559,-12.128872382829805,-9.49543731735192,-7.729744395545454,-4.557481588547406,-68.82228859485434,3.891028013305469,-0.9428517619430696,-5.8594523952600674,-7.198845759535572,-10.836818604966558,-1.9313763178793142,-7.63154935634966,-3.4804438211445867,1.038913973179934,0.8455430387819987,8.670051431430725,-0.9483718671974932,-2.677205275687249,2.5483928289804583,0.28295101801700984,12.522809820440818,-0.9497930744391097,2.787454929741131
-30.692081893824028,-27.59999366295765,-32.10603341344173,-32.63727435036435,-32.92207448588934,-6.265364294783696,-18.615405592563658,-21.258679456879612,-17.63529076971771,-19.149057262275686,-16.61937160967507,-6.323120676929227,-10.84724785849091,-13.710663591190924,-16.77016323280856,-16.704195528860893,-15.960460433794552,-13.76970851708504,-2.9699020642857064,-8.02915377572621,-7.679289886835687,-11.155594726461239,-13.471991186255721,-2.8597662403215884,-9.165452109726152,-10.929197802244891,-3.856979292068048,-10.26263805154495,-7.766242629846808,-1.8312292009962867,2.2707234171334276,0.6960892313078006,-9.766044125488918,-6.920229059907527,-5.708456658311585,-2.3077058841663596,-64.5831936130862,4.702875215074778,-0.3344823878050853,-3.761839118915039,-4.3978989431961315,-7.771253636198579,-0.8542069400299681,-5.513590191853976,-1.3127613251465102,3.685724469373966,2.7697810342655944,8.772472727292428,0.9646198022167756,-0.32829958309541785,5.1935475262313915,2.5191556350289845,13.508612343421232,1.5062312506353281,5.33931653334519
-29.224858748782193,-25.739215762686175,-30.226659531506677,-29.94322864313965,-30.41698320159663,-5.56997249022951,-17.046106258942093,-19.249421385754932,-15.472967685416762,-16.821521014674342,-14.72064987242479,-5.6924572075426845,-10.024335936115227,-11.999306756080673,-14.555302159723206,-14.71453165454514,-13.319811417698176,-12.627855030510329,-2.3462111061073414,-6.447467138552372,-6.125442834954339,-8.900640655309214,-12.748674095019512,-4.986698604286913,-8.137182513814212,-8.81923016820107,-1.7243024072161761,-7.775643845666459,-5.828137457738389,1.0427635739746348,3.4570107406640327,1.0784435825961802,-7.661635849015469,-4.252979184874675,-3.597743047171715,0.028523844458278713,-59.20400267223519,5.368198677833357,0.14339344612323401,-1.6659652177263355,-1.7328825923122642,-4.846143130962857,0.009950902123340377,-3.7032461100515315,0.734960331439106,5.958530420527329,4.555350362220668,8.783948223018033,2.561149487381406,1.6821751198867971,7.346912264730217,4.5771150288659515,14.389357041604425,3.409546299040863,7.47137174107854
-27.60700860904411,-23.997846725658494,-28.391950309394225,-27.22419658417095,-28.082716127752924,-4.66686259194905,-15.594698065714628,-17.310715658763748,-13.607221066707696,-14.705807492787168,-13.244189111927133,-4.643339017823088,-9.204542154303326,-10.472266119940986,-12.566637455852087,-12.756870467648145,-10.8585431226963,-11.671088210919496,-1.3070754001697185,-4.900030730750103,-4.836191488318897,-6.925071038131605,-12.184817402832865,-6.586490998418126,-7.145829291487247,-6.865309204012183,0.05216464397846021,-5.516345684117021,-3.892131888919956,3.0609170008044293,5.711143096926381,1.2911990039401502,-5.855002363220689,-1.7233603665659079,-1.569278114113523,2.1716486894054703,-53.60517508382057,5.679855525781287,0.48281218660029523,0.28322416923205296,0.5976638721459944,-2.317125843335183,0.6523630963239135,-2.327279892125593,2.5358963250871116,7.619761583417729,6.02340685330352,8.665298032732846,3.713962621036825,3.1773255112868393,8.8676616701202,6.189506953674255,14.946939326196533,4.628143720330674,8.891064974345523
-25.938536813678247,-22.498272885890373,-26.715482532336992,-24.794187163272237,-26.08949838150389,-3.630534622145717,-14.347435329680135,-15.593130784858111,-12.188285135654294,-13.07065332471044,-12.346993456208951,-3.3202084476472495,-8.38499591917361,-9.21434981401003,-10.983993626616389,-11.037367046920597,-8.95155093766267,-10.90836054351389,0.21499695799927698,-3.4402791193193805,-3.8434633037698527,-5.638433745379608,-11.735130929018128,-7.050178223964524,-6.176480866582653,-5.142669966169548,1.408202183772345,-3.758259300373413,-2.244702442343533,3.6972956639857912,8.562772157404787,1.4603842515491596,-4.379585414949447,0.41675052781369015,0.16450161692550563,3.8510564878148847,-48.99362313521567,5.499955344578655,0.6495322106833896,1.910544942976892,2.438953749262585,-0.3838952159656468,1.0699931472964046,-1.46211659105374,3.979954204152928,8.54904852013882,7.018453927883291,8.351718042269113,4.350523597202571,4.051296001588772,9.723917768845364,7.160025098378594,14.994855646862389,5.1319333523296615,9.433198466244953
-24.372584525364974,-21.324087841282893,-25.302298122840703,-22.91382972033862,-24.61839438407263,-2.5863656823970285,-13.373023025241988,-14.230376716585376,-11.283956926495916,-12.0956791777775,-12.078291869686543,-1.9527598218447149,-7.601851090146603,-8.280426111305234,-9.90724846135331,-9.740167375399302,-7.877383181050129,-10.377039898429285,2.1348084118553907,-2.2207160124079013,-3.1758247843858465,-5.343354237813877,-11.413209844835631,-6.1312039459742405,-5.259140202739718,-3.723889839627223,2.3309601780535685,-2.6536503055309284,-1.13989982598927,2.665623466605328,11.355662822796265,1.6687005145880196,-3.264450313288086,1.9757684822750825,1.416553611568245,4.895398980600019,-46.41293295503078,4.825409962312573,0.6309801435671325,3.0678889308267916,3.7189199040536804,0.862126716397474,1.2812117750745529,-1.0885082608756178,5.016773967906051,8.792407003646922,7.469174128108209,7.8044853294128504,4.482492356678597,4.313706277227934,10.011632787870074,7.43062630070319,14.46210901804218,5.00842758205716,9.138287791628061
-23.051572572908118,-20.485325087324455,-24.214471909940574,-21.717250509288657,-23.807336698384443,-1.639473727165738,-12.682926570763154,-13.282713665775319,-10.847254220156463,-11.801229056640567,-12.34673774490234,-0.7476220241077232,-6.889761978916368,-7.660128574982858,-9.317539419834173,-8.956438234270578,-7.726689415336588,-10.13428848999812,4.219904755561162,-1.4104052909374385,-2.818441620907101,-6.11832200508832,-11.28382271278405,-4.004234632945968,-4.43368979040022,-2.6489167870030266,2.8657215031548366,-2.189684218725051,-0.7090468931036384,0.05946097850458276,13.427296057266823,1.9720447395279304,-2.5089000343097956,2.89329221942306,2.098761434248104,5.297521313743884,-45.95673831682413,3.798007581100558,0.48946274816141866,3.699709788713265,4.475042466800956,1.4722543258392886,1.3392622230684577,-1.0743624593876973,5.679484960242929,8.557729261838437,7.431653834538123,7.060481165312449,4.222503336392046,4.11032832119404,9.936984150913073,7.0990338290540445,13.438101727837411,4.445579562239856,8.255364881790141
-22.042322409152252,-19.905383900193193,-23.445695963016753,-21.1819105088516,-23.701834181248174,-0.8160384820154949,-12.214101206164369,-12.69978683226222,-10.718723670366616,-12.027408980816858,-12.928059007643425,0.2003857454110336,-6.241053933318911,-7.262563716383124,-9.077325200363378,-8.64354224493949,-8.364370793202077,-10.219008089161278,6.153320737895008,-1.1114325035880177,-2.686835103225314,-7.759711806517654,-11.416421620856397,-1.1853202984925395,-3.715845750356327,-1.8940309619407043,3.1236646901936203,-2.1869177115329625,-0.9023309791174214,-3.606058321520997,14.289429641855861,2.421187605258325,-2.0566292244425783,3.268000206954069,2.2622592117231974,5.226248576801231,-47.41726605105782,2.650744281223079,0.3711159310959893,3.879938939726797,4.854418576565371,1.6297479878664867,1.3396001331021505,-1.1868676411078816,6.089838079963609,8.168485171522146,7.097243246481881,6.252509635623021,3.771696365735049,3.702735427530656,9.766281775038474,6.403039413946538,12.160347999875109,3.698979443572477,7.183379487517511
-21.314113739693635,-19.450159085173148,-22.925136023321627,-21.14432548729214,-24.216206548821745,-0.055377561922229646,-11.845734385002238,-12.328009591667314,-10.667988805681281,-12.473948071991478,-13.512604370938213,0.9423044412666219,-5.59399281951624,-6.938998133600304,-8.97173401316693,-8.630253627151252,-9.45416144286526,-10.613397731998301,7.634835736398562,-1.2720617913807772,-2.621532530707353,-9.806012584049284,-11.830756401780432,1.6497869546104789,-3.070067891619714,-1.357443341837819,3.276220541700332,-2.350287377258259,-1.4768152113074344,-7.479594603728429,13.770204425213272,3.0731527965985084,-1.7843819181935858,3.337190483471213,2.107870979838168,4.989528363368711,-50.24006517582927,1.6245267668536636,0.470115624653495,3.8099044181949555,5.080372323499907,1.6151661576330512,1.4035874612731387,-1.1469191946021844,6.429515811984267,7.979439131731985,6.75416301867668,5.588539349077244,3.3789526570368684,3.4017664796937312,9.759294545337951,5.6582163946485595,10.943840118650346,3.041374519225095,6.355983378005305
-20.761017695224545,-18.98087696393545,-22.54623940749515,-21.348458139172195,-25.120926331707768,0.7418145928087174,-11.4446525800272,-11.961184630202972,-10.453285566387775,-12.782538555111499,-13.777893336065182,1.6323419137320632,-4.859203607840362,-6.5315328145769165,-8.770154961004561,-8.662931830215438,-10.546684716011274,-11.225423339366241,8.482586365636159,-1.66033492726134,-2.4228703515493892,-11.648381914962599,-12.458477904432797,3.8855643489927076,-2.415437815995733,-0.8780856756411795,3.5284330078685633,-2.356813504753462,-2.052103034873968,-10.57703551623953,12.083274468088895,3.9760824694545613,-1.5140221370012492,3.402451220909052,1.9446406815580592,4.9481730214483655,-53.51491643939383,0.883394460294479,0.9561620465639251,3.7622339285764106,5.391172509555381,1.7411663577686671,1.646413557236201,-0.7095875090452821,6.88478169771782,8.276553798388104,6.711723465577316,5.29183249437979,3.282776884162116,3.4797900181868835,10.108999935467615,5.165767548487492,10.082701932377134,2.7025956546327636,6.104552033629641
-20.24403547853972,-18.396489192867595,-22.192878113241424,-21.505091867794974,-26.07184620831565,1.6550698076567745,-10.909505041067117,-11.404099305529456,-9.880504138893853,-12.630581231473386,-13.462153265371924,2.441770597936149,-3.9569890244490318,-5.920647837668117,-8.280698331115907,-8.472063344537418,-11.197287348892278,-11.889234595195795,8.686022405309622,-1.9321800720349933,-1.9168220434696197,-12.691726579710995,-13.135094097289965,5.150418518920608,-1.6628387984030233,-0.27999790141147907,4.079198132505044,-1.941153381101885,-2.211772034065343,-12.039361506159086,9.784696663643171,5.1316943353032185,-1.0565032008173754,3.7329788525171193,2.1029984943513718,5.410351017351983,-56.549178526577805,0.4680102585141199,1.8946490885141571,3.9895860881894585,5.973974075654001,2.2678202131150735,2.146931411352453,0.27005409096010813,7.601149712762364,9.203430282188359,7.214499474241315,5.529528699177586,3.649652889960252,4.092491305390177,10.906147758030926,5.140140698303239,9.764479623140014,2.8285885928899193,6.56514725678338
-19.660317003494367,-17.67567755054536,-21.775050670542967,-21.363257539936136,-26.685012625613574,2.676591300955012,-10.212860833171543,-10.54238587157192,-8.855764895751564,-11.82329466479639,-12.43357117555495,3.4558276182442005,-2.8705445295360854,-5.069578678836967,-7.402219730439873,-7.854525807773794,-11.070402713024166,-12.393302194574787,8.410161404092289,-1.737392161590694,-1.0150709055563185,-12.505583363322987,-13.629260668538445,5.418455411926322,-0.752689929385906,0.5785618913289841,5.07379532317326,-0.9567325931193259,-1.6115987759384205,-11.353614194574128,7.627398444891129,6.469266495719367,-0.2650978546837317,4.485090286778997,2.8420534202678382,6.54888135529186,-58.72193431169583,0.3088536215499982,3.2075194539163405,4.643715695268814,6.91717079487498,3.3416948398402306,2.906254451942189,1.780256842564991,8.637369146426517,10.722336466009411,8.35725153123956,6.344438962192285,4.5181561013180245,5.22276979746279,12.123919991041623,5.655783225023165,10.009897725176167,3.451431336482048,7.644190128677796
-18.995171795964303,-16.88346052191347,-21.25309621089268,-20.767650852710812,-26.631540117692115,3.6860900562094248,-9.413861148654927,-9.386937592008252,-7.409196084181866,-10.348735604672482,-10.72760753160551,4.609977586913999,-1.6801150730111485,-4.041188055368135,-6.148921227238377,-6.736557015322757,-10.02173370255785,-12.537512608412705,7.929153520972669,-0.8506275780215184,0.23528286882157357,-10.939080668095535,-13.710384652301933,4.97913068257194,0.30610633215136324,1.7504529618068214,6.551296164455617,0.5893833181582736,-0.08129951045952888,-8.496864741396614,6.3323650813175165,7.828322863720776,0.9031258404526055,5.652028156902437,4.2642664065395195,8.349189749430455,-59.76694427810014,0.2760505360142531,4.6713280032882025,5.714611876235241,8.180461362279011,4.955546614385459,3.8280588845658414,3.6352115456386533,9.937315385925913,12.621305249132293,10.039802589486184,7.616649685486294,5.7752603324545655,6.67586309562033,13.627882054838734,6.628456161229555,10.665830002291147,4.478249065146749,9.051583277396979
-18.326112977030803,-16.134607563136246,-20.632478271675318,-19.679192441225023,-25.72668209162845,4.492381788187258,-8.627506348613036,-8.068836222409697,-5.680708573164936,-8.368440626002915,-8.53527909955934,5.704314331639726,-0.5502171140344231,-2.972438750276942,-4.633051598896914,-5.188622655187545,-8.125849725678496,-12.191337107184168,7.516676809588297,0.7297306434006798,1.6484423557125778,-8.16031902546602,-13.22800740536388,4.307881804927325,1.4237330806061117,3.1707273302799144,8.414629664036596,2.545494932491839,2.319189031075284,-3.9480238615182772,6.359493276534404,8.979332059283568,2.3495505969371377,7.07064746588266,6.270917983483471,10.611911114279428,-59.72227948348717,0.2479770972611064,5.975605556982412,7.022524613276473,9.605572425358456,6.944366858655781,4.739126631489423,5.523238810120225,11.346611382186962,14.576300360200191,11.988984763585915,9.085025740344939,7.180006931146207,8.136271341969415,15.214387236773852,7.845419263729984,11.458334628338443,5.71167267315134,10.395030505387526
-17.794558947247893,-15.548051395416072,-19.948746562795886,-18.17926283864065,-23.994642048945643,4.903100774538379,-7.979073474928831,-6.795893656231557,-3.8815060201401517,-6.168958035867865,-6.162869223512432,6.477103863429711,0.31550072512890426,-2.028364400416136,-3.0357722829659424,-3.4072709834422494,-5.641787684951329,-11.33462657312694,7.357035528297748,2.7580347190010115,2.951719864226191,-4.6043571070241285,-12.167690283810243,3.892957665462069,2.452374283261963,4.6704018034222,10.438493771845913,4.662953028892656,5.306760424668779,1.446002254865813,7.757468071324111,9.690098428326639,3.8497198129286643,8.479343287229531,8.57797842049461,13.007500998455948,-58.73138415548465,0.1767718951245536,6.823930278542441,8.275342660250029,10.968780163990886,9.028385733356815,5.428645350604633,7.081146360743236,12.64916783694503,16.240765610530083,13.822469863089383,10.408924215469714,8.421871647585,9.259100888228833,16.654919573405532,9.027356888267484,12.07066256169412,6.893509642821329,11.302060402304344
-17.538748531718042,-15.19133113334063,-19.239919796481278,-16.444443756747336,-21.669078957289457,4.819202250408848,-7.546115661170625,-5.779547494594376,-2.2381529129321303,-4.083404909525035,-3.960435259075323,6.722363550261342,0.7514788938447939,-1.3434945630329964,-1.5586034282954437,-1.6597140417196354,-2.9480171087207383,-10.072004072503042,7.484547585887896,4.805827069829661,3.8656367354892636,-0.8668824987298858,-10.668545190080081,4.064746091363942,3.2323685129489528,6.013641048719322,12.30895370749472,6.6556764726336555,8.432337718749507,6.683342033889999,10.12208598567624,9.798401278031637,5.103196141347278,9.601314279473888,10.785540243636262,15.156819921715924,-57.27134978114378,0.10288813108852946,7.024535111330586,9.159776418382616,12.03750721781443,10.880751409683056,5.712358378731288,7.988808422276661,13.61938654580306,17.33025373800647,15.14579233277229,11.258376423614088,9.20859790940153,9.772923157846531,17.737971565517956,9.901241496652815,12.22817755920491,7.7632776634975285,11.527076014026825
-17.61965920630509,-15.04261773530079,-18.52111507016694,-14.69487611107513,-19.12850392830031,4.299869057677627,-7.3161253313715,-5.1602885276808275,-0.933012893259126,-2.3991994268673977,-2.2379671822492475,6.393863671228242,0.6989162717708389,-0.9697225688166057,-0.36886560759428244,-0.2049271122112058,-0.45378451812243004,-8.610053734305566,7.782078707543667,6.407789442429143,4.20179330009439,2.432377543678005,-8.990685341555414,4.90511583874609,3.6531165433774726,6.965240963329249,13.70037568189014,8.260253309871839,11.181664222103274,10.844475989829313,12.704591784579893,9.28101145188067,5.824268753140241,10.228845474203352,12.482127543069534,16.721843142146092,-55.51985096317421,0.12085292844312434,6.560790389241472,9.446989107130918,12.6336364564232,12.206164379925374,5.50156798295675,8.06896249374132,14.08814559264791,17.68805257090886,15.664348728011253,11.408741850717218,9.359431912796854,9.564694777855443,18.30963161773791,10.25615334867599,11.769071108831,8.115609100539228,10.999211240081506
-17.983274086937673,-14.991871760740798,-17.778323958800605,-13.143572348321973,-16.792565395963607,3.554730841252935,-7.188419362206939,-4.961023111089465,-0.06319270058128004,-1.2916287299211133,-1.1998357487287925,5.6403280972119525,0.24009146949376226,-0.8575049578919781,0.43415551596671653,0.7740552028258914,1.487849734773806,-7.202865636115203,8.045103250721153,7.211475779856469,3.9350386646448134,4.7819952726572446,-7.440712475044316,6.238681170964375,3.693308667977793,7.366040620420636,14.372521536510003,9.288098382094276,13.091738670732818,13.293861919363938,14.64708299610907,8.287679907351436,5.846427997120599,10.278483423400841,13.350929625556791,17.47625805408149,-53.52308377964974,0.3254376270411843,5.605439300832156,9.073939567555158,12.68934214750815,12.808703692550091,4.842457781992611,7.337932797146752,13.988851398713294,17.316216409412547,15.255446463220528,10.794757861718498,8.863710866318257,8.713378879073527,18.30055845859366,9.983685403984392,10.668889692153856,7.849650453244959,9.819392998532864
-18.463693577206246,-14.872170225520744,-16.97375115273556,-11.946396837522457,-14.998014780433042,2.876259192882488,-7.008189131845538,-5.080127000889822,0.3765431262619492,-0.7924267098077176,-0.9061748537117258,4.76104876972725,-0.40888422335511476,-0.8711988665677243,0.8400382223157457,1.2174147621170088,2.6433789922941697,-6.085922420836234,8.066698514811614,7.099278104116799,3.221226015540334,5.869738121340415,-6.281652805973003,7.703204423706152,3.4355371818451905,7.180479379506689,14.246753286890236,9.656617602680214,13.849306918466565,13.785403594493847,15.259128635171905,7.1093664740298665,5.188770749656878,9.807656109786166,13.254378317834767,17.343431324052435,-51.601796811873754,0.7463380788851657,4.4633418593509955,8.164423881082435,12.259035037163173,12.63389086095798,3.916376262999126,6.002175449156474,13.369908846027613,16.35500141202853,13.984576156821257,9.514120633901825,7.891760554196893,7.465707299746158,17.735844202089655,9.092815496542109,9.020377472978042,6.9963892255371,8.211283090441478
-18.824655821772847,-14.510674931480025,-16.06017110211281,-11.159118840534004,-13.890556633051531,2.533204550675814,-6.61945456005827,-5.32238225432165,0.487954303189265,-0.7933523688914088,-1.2670060130374856,4.095278533528887,-0.9620706335167956,-0.8268878206793072,0.9309386068224277,1.2041881654123467,2.9334279306938056,-5.415460906918564,7.719459538798386,6.2398737770054264,2.3609252986792297,5.621615625330417,-5.656107597616312,8.88232419797483,3.0453543374120953,6.5115323431891685,13.435592210464826,9.393178557123075,13.351138420902336,12.460473922489808,14.253789840262783,6.095572644035768,4.070875556548574,8.98470043894016,12.265080000297111,16.397992333901314,-49.89457199431018,1.3115620489876791,3.4778338227350076,6.9910127615944235,11.500648739678155,11.774307116411585,3.0011552079388206,4.411205832958156,12.382291686001661,15.030107251384104,12.074692765500954,7.781535288312645,6.754325306498502,6.1626558860227485,16.729913330403622,7.686934153610452,6.987046480031788,5.708158698616491,6.43081691157885
-18.82955689799798,-13.779586591392782,-14.998944324860883,-10.716462854695793,-13.37840958329765,2.669586643335876,-5.91977032055244,-5.456692930381714,0.44081566834024155,-1.0854464824247485,-2.0665891838276074,3.89486940761902,-1.1490916780168061,-0.5448223812299616,0.8655519635195978,0.9298874991856638,2.436986197322393,-5.22432543956189,7.008434270573764,5.030925318117957,1.7144688255389076,4.195327524048761,-5.545016229295513,9.436798271344747,2.71695018988843,5.578629366246316,12.22271790555165,8.624905411026244,11.716760238333668,9.765852173207971,11.866807326373014,5.553763717754629,2.868473835881036,8.031407624378195,10.639939648174177,14.832309025610508,-48.61824766742137,1.869485943776259,2.9338785576031388,5.893584050828509,10.637032643697864,10.438300313164161,2.3967553419823737,2.9660954437616764,11.240917160749769,13.588131458419985,9.825936398426302,5.844651854726553,5.810994367780611,5.135277491876534,15.462157088978117,5.929232356419125,4.74136658680654,4.2185292277523585,4.683055391773069
-18.31719988501685,-12.638803921158766,-13.778185204733564,-10.450867120131058,-13.175268068035717,3.250389313828089,-4.898874769731477,-5.284579756720672,0.42625955179245434,-1.423257656085083,-3.0230092755988003,4.230485348657748,-0.7989253347630164,0.09674968353149327,0.8404016732228725,0.6505403443800755,1.3745138448161454,-5.414091690871712,6.067861856312586,3.9772504107328923,1.595656737362627,1.9323471572764288,-5.776958277642901,9.205623559551844,2.6186916484564184,4.662358138163723,10.99116428495335,7.553833269344406,9.254900768157222,6.317260149198812,8.802095433888312,5.657828480055673,2.0132906690997485,7.167214773080028,8.753359589959434,12.90355944361607,-47.874250820164775,2.245646591262446,2.980710259630735,5.178062936959953,9.89758119837376,8.89566861135136,2.332990985155771,2.009508189941818,10.164472293530558,12.223904507191191,7.5138398393906645,3.890738945283755,5.3598766367090915,4.605201537058435,14.132922260942648,3.994803277017721,2.4070218667788197,2.7741587187711696,3.065534489759193
-17.245553854147285,-11.14693475153155,-12.417697035464236,-10.141116465489375,-12.904660651414432,4.089053951898512,-3.6376377687748596,-4.6895525852386735,0.6110351261122089,-1.585938771387781,-3.85588545419574,4.979834176354355,0.10642651761345123,1.1329963121912292,1.0411459075734206,0.6133529332465382,0.054467081921369065,-5.794192029089452,5.108798727285706,3.532077020514923,2.177847009444789,-0.7280880038608895,-6.09645185775217,8.239460940755562,2.8434449480769173,4.0298648116294356,10.108612949568638,6.410565927328514,6.383655825847326,2.742397471333873,6.014817607677181,6.393280583275989,1.8634173572410893,6.554382796320985,6.989177739526614,10.867977062868034,-47.48956074665,2.3017853496589904,3.5955741867267967,5.028595149569021,9.459120257381308,7.406922664857981,2.904471561162701,1.7416926452140153,9.323531474184968,11.039211353609685,5.315716061533228,1.9874172709303224,5.549334488544052,4.625906450986457,12.918134553083709,2.028045411217435,0.03390117095628309,1.5631926703996237,1.555858740559691
-15.686744027808892,-9.434813479599166,-10.955614440890905,-9.57166312964254,-12.232441480925257,4.9455081231977704,-2.2670213378393766,-3.6533881625910327,1.1062039710666651,-1.4192918147814615,-4.338031042603134,5.906863173733434,1.4435555229408794,2.5144566809190194,1.6028737298912055,0.9996329476198897,-1.1934598156713436,-6.142249127103489,4.355228429839972,3.9568776805517207,3.448123774608553,-3.329320051369652,-6.254833291618832,6.772437414497679,3.3901904833729555,3.8697167384380218,9.822779788459759,5.410419883986919,3.5393411333618707,-0.43141850102477175,4.411726913672381,7.572266258115261,2.5976076621768547,6.272981090516678,5.642349609176627,8.927722433447338,-47.32123712246022,1.9939237643163557,4.607863751704336,5.467069020787087,9.406196657500917,6.166587079014058,4.047987175146744,2.1824465304615996,8.806335868765473,10.03906097767189,3.283495355434908,0.08019800677349043,6.335491756555039,5.081347003732678,11.9311061081127,0.12366032520035208,-2.3920877165149648,0.6683032331303744,0.043800344409920644
-13.79444593973982,-7.668983787038883,-9.438461548494097,-8.601868008443763,-11.00062479126667,5.642618062060288,-0.918064134547742,-2.248271288019887,1.9431088376212022,-0.8664546838166596,-4.345341355428149,6.783912084261445,2.9995520507637194,4.126946980124192,2.5708696016112085,1.8797752625299071,-2.0723060257311063,-6.267508649353615,3.989505499253814,5.261079334105927,5.222689877149711,-5.4607998742223245,-6.088338400274324,5.161068026066195,4.187239794084099,4.256480858591079,10.202478828505686,4.718546058939382,1.104329243494527,-2.829472792494834,4.578431846416048,8.911074459917252,4.170115136929115,6.331265209207695,4.861535309964953,7.207244976316625,-46.91441967657627,1.4050596488355787,5.76905429520807,6.369808512634816,9.722837729523548,5.27491889769522,5.556605511300315,3.1723657904477376,8.598391776196655,9.14415188183376,1.3561134538450612,-1.9659521175519867,7.497904553221873,5.73091624120982,11.191093500374986,-1.6845000213109484,-4.921612955493158,0.04436556718894469,-1.616526283879796
-11.756167457106574,-6.008660448599553,-7.916163358426894,-7.220264297317639,-9.30038428307001,6.159202698062666,0.32368103761524925,-0.6098830997779076,3.0653752432318333,0.0246869627111026,-3.879910866099435,7.509286124477779,4.547746508313187,5.823262284439732,3.8759559019827683,3.1928628348779564,-2.384938308157314,-6.079629424416102,4.113168814847796,7.221859494703105,7.2099454632771325,-6.834026168949304,-5.582051931582486,3.7855667428107354,5.1304050291660515,5.141513666841284,11.123379690119439,4.413873116940796,-0.6595261185159971,-4.267748455031566,6.614649718043176,10.128696032550273,6.32334853773068,6.681120714203951,4.621099572268271,5.743318716973551,-45.92436415548917,0.6951133134211496,6.832630112451795,7.524135281590913,10.303792120383488,4.7257944355238815,7.138584636105319,4.422439602535511,8.592134293030597,8.22957446324131,-0.5897889276840442,-4.2894937805310835,8.706439405792157,6.284095399814231,10.618338587913001,-3.418550389952304,-7.603502705265061,-0.4615321399341843,-3.5461024560145655
-9.742849138725774,-4.567563587859851,-6.436711289040034,-5.559978991500067,-7.453159926619414,6.652599041257096,1.4450901492328532,1.0984709168745033,4.3428300263931225,1.123265563925267,-3.0565941093459643,8.16701880359652,5.9254359029978865,7.456397144061478,5.345096495577904,4.763489681523661,-2.085019125033317,-5.623366557860124,4.7459252534109595,9.473356665753263,9.102956334596232,-7.3331109173849285,-4.881139232221656,2.9605802322803627,6.125706242653439,6.3750206236593385,12.311370156850657,4.470707588078718,-1.6495070807673025,-4.752974699766239,10.107152835917017,11.034936720010432,8.659821076353762,7.236891379247789,4.742083911602297,4.494880785376793,-44.13039182427542,0.024851595811302474,7.621598781506684,8.69920431316394,10.981079818930553,4.42210565840933,8.500005081100824,5.600375298799203,8.618005281964114,7.168501041120429,-2.669012345912446,-6.950620715478502,9.618545812145864,6.485960476687063,10.055756450137634,-5.1435194615448045,-10.447234709764444,-1.0571299648091772,-5.8036011440108055
-7.884319868725617,-3.4003863433487886,-5.054138586461122,-3.8720212762632435,-5.914530414808236,7.387205628168919,2.488531835087726,2.7136522692955394,5.595220678390773,2.246185406641972,-2.073552846552888,8.985233337265125,7.068747736347088,8.899440671236798,6.732741717658312,6.339540057945999,-1.2815433900452833,-5.056215494602129,5.852632163034494,11.627782574975715,10.667289454391316,-7.022311852979421,-4.233486137254655,2.881730775843613,7.117887980734371,7.751026310240777,13.429822016869583,4.766795411822735,-1.916657308688253,-4.434540446159427,14.264924045459683,11.585638413101169,10.757811527786618,7.888915990373471,4.95001979565464,3.373100045825994,-41.1733805143561,-0.4995964858927344,8.06867438176273,9.706572361793981,11.566563912666787,4.210156233661057,9.41225326776001,6.406780497149959,8.47859479210164,5.860318639492279,-4.934277835172351,-9.888337376158294,9.969922062259826,6.178171634657727,9.307707488067004,-6.94706133059661,-13.404571009423657,-1.9431456102357432,-8.37436459863541
-6.276609251617886,-2.5137918005851887,-3.8438955947930618,-2.4617211149319047,-5.128349689763172,8.596934157887377,3.5019535168998486,4.084300141425042,6.622243022473362,3.1902203929618285,-1.1656601425847168,10.208313357061623,7.997852627803464,10.047092607552258,7.769291132420404,7.6420423704505955,-0.21260697165504627,-4.5967822398466405,7.3611427802932194,13.379262119569873,11.79024355331935,-6.133886783915084,-3.9039431896891514,3.585762084260806,8.087396579743016,9.049368233096619,14.168548667056363,5.107656709498355,-1.6386364283734225,-3.5664237689030616,18.163951965806483,11.87238885898826,12.277580114985494,8.507402052654141,4.945199724645697,2.270526566493659,-37.35873967681641,-0.878238600799814,8.210058983316888,10.428584196114194,11.88529953461148,3.912755688720538,9.748530689891734,6.629387224035908,7.985912103481676,4.2473266399399865,-7.360022876581153,-12.929203556560234,9.62782898868803,5.316489926875836,8.189134256584024,-8.913936608144134,-16.380140274531996,-3.2522968554668816,-11.1846681912634
-5.0033630697113205,-1.8937557885218794,-2.905677937607444,-1.6060077603617415,-5.379492923621197,10.342288760442253,4.487562675564527,5.074518535851037,7.237419595328656,3.76844379466686,-0.5537892380306535,11.942323867889929,8.765192856996139,10.807589601458227,8.224379081046512,8.420383874698818,0.8151973359285121,-4.448788958824239,9.168603163633081,14.557965837426224,12.480781647834345,-5.014479959759697,-4.080810604823066,4.940526780337597,9.0234941064374,10.065032614810674,14.309573139252038,5.266579593461224,-1.076678293980914,-2.4581426907756248,21.002330699061915,12.051121413482015,13.021614788602452,8.940447511695021,4.470571318637518,1.083541694569925,-33.357738790792354,-1.2084134182150654,8.140771988040381,10.807916472438482,11.796677128747401,3.3601407994028216,9.485195271683047,6.170699986375474,6.991203745994589,2.3131420075709777,-9.859889019994297,-15.839174223418091,8.602047688420733,3.9515321099203904,6.563785223300626,-11.111564193779035,-19.258474025587432,-5.02069228678288,-14.140174790764343
-4.154323073850485,-1.535891299667881,-2.3580909021054532,-1.476756650090369,-6.698682147683493,12.424435003417448,5.363486143408012,5.567339922790867,7.2981085274135,3.8430721886399315,-0.3977711968980455,14.040208018705421,9.388877781020701,11.095142061167275,7.957656759995816,8.500746818896321,1.507830997098952,-4.727305356005751,11.13794516061375,15.123222870522206,12.824466459960927,-4.0418648575253755,-4.807057372939012,6.669192220129856,9.886732363310193,10.62567079756416,13.752028353651351,5.031771091052776,-0.5248881371065957,-1.41297787199795,22.292631506030702,12.255013724445881,12.945616346049356,9.013798087123261,3.3553228021460164,-0.2718355538849946,-29.86113722811208,-1.6292738076366442,7.958353352296783,10.813385429794998,11.207188306431526,2.4118037674418185,8.666698131956846,5.033932498511816,5.401186585343593,0.06628451168276506,-12.324782804412514,-18.397585854254743,7.010855403504267,2.1817677980266668,4.367632009010516,-13.57197631882789,-21.929012132458446,-7.194477295816211,-17.15707687696347
