F3,F1,Fz,F2,F4,FFC5h,FFC3h,FFC1h,FFC2h,FFC4h,FFC6h,FC5,FC3,FC1,FCz,FC2,FC4,FC6,FTT7h,FCC5h,FCC3h,FCC6h,FTT8h,C5,C3,C1,Cz,C2,C4,C6,TTP7h,CCP5h,CCP3h,CCP1h,CCP2h,CCP4h,CCP6h,TTP8h,CP5,CP3,CP1,CPz,CPP5h,CPP3h,CPP1h,CPP2h,CPP4h,CPP6h,P3,P1,Pz,P2,P4,PPO1h,PPO2h
28.40453867155322,22.40493215870063,19.170473777489782,14.564701338842374,9.22987200994427,31.64036672149679,23.634543827275586,22.33089923754825,20.61718472923717,16.800465836579946,9.020013363682171,31.317259081368622,27.722928212442742,24.79398455377789,21.185650440705892,21.18868325146732,9.7596222144041,5.094662166318836,28.668394245921338,32.48035315260078,20.56254006695874,9.137965400680766,5.319702248122035,24.534582792688685,18.43966516855382,21.48202387469604,18.13999114778609,16.935574695741323,13.273261804158814,9.585286831699309,20.12568721562905,16.94725931380825,20.09970057203821,13.972073649282388,12.36525054778426,14.298627170716248,20.877481171505668,10.343843646538097,19.87995686065138,15.15823087821175,13.052057786573839,11.861534780839117,13.515298314301965,10.64676937973503,10.112266046331909,11.160724159943147,14.243000685422139,9.943943713266234,11.267220310451014,9.33971541949052,11.24033640852371,9.27421008342301,6.57336739280837,13.291006217297479,8.823687029858807
28.70283440090931,22.3255990284693,18.882170330254105,14.813634725771125,10.434388639921213,31.53546034610587,23.659435023867026,22.172857566159042,20.4304158242136,16.799259500294784,8.924920881133247,30.988349725113792,27.000180846771702,24.359900690542496,20.934462658157713,20.779862339888037,10.584608617579232,4.703277187033118,30.458941525638643,33.86453439386905,20.380211181492825,9.461575096096102,4.882901098221155,25.903628142259382,18.556627006529606,21.346612146541837,18.10209351168824,17.148346923182068,13.615538830343063,10.271551535198173,23.693524775252357,17.83251308058004,21.13786602570692,14.862653219337224,12.768090289346478,14.060212821125386,22.474643919879657,9.283830016976104,21.112227261950917,16.45656634178043,14.511246959076997,12.402774977720044,14.667032676515031,11.912424154447795,10.387103839336328,11.287946351347394,13.575262426438968,8.49315082179586,12.558118489303483,9.663152878307638,11.44685905104495,8.895764648863402,6.278815850796711,13.360641214629503,8.6231748832464
28.585707675849477,21.9024270630246,18.35553844564466,14.390915301694923,11.16533083389971,30.792658613755517,23.119971405953528,21.5619280816555,19.676376099017947,16.108010659105776,8.396596308555077,30.175846961527014,25.853644116789663,23.23945299493107,20.13419351769341,19.75281980641959,10.777964477665545,4.096316426599275,31.678171001443474,34.68277996194948,19.625769838127695,9.019042328431158,4.303554939649076,26.824999083234328,18.14047192701833,20.546722897539677,17.30781375370791,16.434724149918416,13.217383426619698,9.443885292164198,26.45651962484581,18.026076056531974,21.258168019529435,15.13041032218848,12.393157848634939,13.253695548959291,23.875148515034528,8.130444623438724,21.673299837810642,17.072866546514284,15.071742263841278,12.182833777846428,15.17608183755458,12.335431250046117,10.13484623151968,10.662122803396867,12.3474400901977,6.783220783012304,13.258660319520107,9.375317490863477,10.945918816168117,7.883091689630472,5.478945242037037,12.697618574142101,7.7699984219700395
28.04012033050813,21.31878822890056,17.775535515916864,13.488533744383124,11.332202294860277,29.388327143751088,22.18271105134245,20.71287473691042,18.59903806695672,14.961480062620133,7.579587957776722,28.929183808466014,24.548225829636607,21.776243032178755,19.045555737517752,18.43210728195257,10.326391663677509,3.299782075754893,31.992396490081212,34.858905760838304,18.473818649620945,7.985645323662791,3.5324802746000055,27.052564457562543,17.345181648450232,19.26073977244801,15.939488731535585,14.914587854069483,12.160500602668357,7.604348619787483,27.624327695501037,17.62242668283702,20.560435894720896,14.75068036826688,11.36496100334794,12.02446279627448,24.964443424603463,6.911237281556622,21.567822390764263,17.006389201912565,14.746100605733522,11.302812852997628,15.258190194938297,12.113249265923077,9.603207183888207,9.517562595029323,10.832979060446476,5.204627491280561,13.504862338976668,8.793721725183307,9.985294908435367,6.555953054728324,4.337346295045171,11.66469496282356,6.51273012663373
27.1785352570924,20.7970830870266,17.355373475775814,12.4378030368042,10.99146135609983,27.50787980669436,21.129699490321464,19.909707308981343,17.53909591086231,13.711911075777241,6.701272986287128,27.42227623254443,23.398174790725577,20.40798861826854,18.01126782236725,17.234505780248707,9.405807607815373,2.3992679710102984,31.36798920509118,34.397999464715596,17.262898125277758,6.794515003154157,2.5934475490698654,26.613990288329152,16.45874973579418,17.845552458960608,14.352598516179187,12.971444806111856,10.759723737103577,5.711109147002382,26.93687860668973,16.899575569531933,19.411233113615317,13.910126325344548,10.030184994874443,10.658479860016735,25.711929051899563,5.6224472892139135,21.00380466718533,16.490510897970406,13.828609961874497,10.100710912721405,15.260211442825522,11.642325543447168,9.137713760521526,8.256799567929596,9.394429407946873,4.126522431992528,13.589054601951092,8.314106699954184,8.951030124169918,5.343180850639985,3.1626679520488215,10.72687170557775,5.237215633960516
26.205481773229472,20.51957022678238,17.255821333959467,11.587928963786604,10.31227481100051,25.506469452496564,20.26353042790236,19.40840602196076,16.81582282018682,12.70496644122126,5.992796781492606,25.91361414432836,22.667214747412366,19.524256699263894,17.33579245697735,16.523821177500768,8.320959950521324,1.5442812497345977,30.061580512315505,33.366060607291615,16.379501339215985,5.991395213693803,1.6156069677631928,25.786551013949573,15.804747899111552,16.721962112207017,12.957836064631268,11.127515857501914,9.457652506646475,4.8060411374286165,24.721039011121633,16.21130545627115,18.29858736396347,12.934315988863608,8.832411753717803,9.493171139649087,25.913779275787068,4.263686249034381,20.319002559963376,15.898268690653435,12.783941166134978,9.027313668919712,15.511394668875358,11.35320267621324,9.046525057521555,7.302037394797525,8.350549672275076,3.756461793426772,13.833738667468559,8.252309870109794,8.21795655604042,4.623434701273094,2.288571719176263,10.27615367953429,4.326448696466804
25.35624459012386,20.567886516021623,17.522453567245982,11.186813593601327,9.515669533478597,23.81947747302651,19.811666320819004,19.351472800051344,16.620115839762374,12.164838527466031,5.60474553213129,24.686434147111708,22.488043127061783,19.344451890590584,17.18617153767757,16.48562928164093,7.397083641178636,0.9109592425502435,28.50266700170778,31.88394437945226,16.121433444059498,6.02620403914376,0.8047782541419517,24.977222399275295,15.635783013136288,16.232892308121915,12.089700953379038,9.86985131676692,8.665289849339807,5.577414912621288,21.73316780152338,15.853338778946554,17.650432829248132,12.168632957727498,8.158514096447124,8.805689084426234,25.68599770799857,2.874504761203343,19.85864995317559,15.598014527992337,12.08196203507026,8.488183570643608,16.179654764459276,11.537706669208095,9.48025046936972,6.94165303664065,7.86619207766359,4.06462600941386,14.450424059057815,8.720562317494686,8.013081746932016,4.588403625732642,1.9444439588491087,10.482806993891504,4.01990346867997
24.833545938595407,20.910185614808427,18.071457321511993,11.309301771606387,8.81388920955656,22.85904370464839,19.863818201224873,19.732058050564373,16.962410591815075,12.134386112782224,5.562566739133095,23.997313224773148,22.8323413639051,19.862790284544168,17.551924428686203,17.077983876363138,6.863719371891161,0.6390095868296393,27.128294323561715,30.122245848168376,16.594356497080035,7.05506637369508,0.36574389509567684,24.546096837332176,16.050471191848636,16.528145199266028,11.910644340488632,9.491081664679458,8.60400332607842,8.02982988603196,18.875679574095933,15.95433636078707,17.678329297792864,11.857231879055531,8.204843273282858,8.714554646431809,24.987179840615784,1.5448360231461633,19.847830211913983,15.811925637856959,12.034498857661537,8.696021750729274,17.209551274378953,12.249867418108526,10.380084887604239,7.240435630219272,7.9151825019865525,4.8054612880118786,15.457859904957612,9.592654577669858,8.34959692441565,5.1862739685412755,2.174612994388428,11.245921923274697,4.33142641206114
24.752911429093707,21.428377601999987,18.723318223128594,11.849238493642625,8.35799931868473,22.9122951132266,20.359235431823173,20.40938790275349,17.685668372427546,12.481261086746866,5.762889251959513,24.029814580104638,23.53999483496114,20.876146400669427,18.26606877654499,18.06083061728955,6.786248120725883,0.7804464917575609,26.245763980885467,28.301143691745864,17.683960538677034,8.855338659641415,0.41985754826338084,24.653698129261986,16.968232319601388,17.522817923495,12.386282484561535,10.01228681391222,9.223372187558233,11.42759009213308,16.91410063866642,16.44425746992607,18.320565597624707,12.074969649536227,8.924072793831318,9.149652251194475,23.84853119980834,0.4204436352307974,20.322761926670207,16.545511751636905,12.710111710402641,9.60591816741861,18.35355678804928,13.309171463109006,11.513780457691366,8.04034720382107,8.32320534758352,5.6243113728148,16.68095985394185,10.569560081640713,9.050846159017429,6.165993407058526,2.8363138717110172,12.256634201703548,5.065927703042347
25.109677089340916,21.963655586056163,19.264374153808056,12.572518502293983,8.205377744292388,24.066491982473835,21.122242240702562,21.16800200339151,18.532582393374955,12.964746530071224,6.012211839937246,24.850907252852497,24.384397315854372,22.070388752263582,19.074812618319033,19.09090895259865,7.0545177429588755,1.2596865322735078,25.959020588609203,26.683397656198004,19.106620973029287,10.878503785415763,0.9347274291613425,25.197566429844084,18.16954486927105,18.93886750208607,13.332513829286883,11.204597684529228,10.221981511434123,14.524556917633886,16.264402330269768,17.100205327965128,19.2957191180246,12.727547234790299,10.06750061226192,9.892015977707057,22.68743967289662,-0.32691823491210226,21.134412370875847,17.60046736847605,13.943491857994578,10.953678632354881,19.270430452205968,14.389610632543071,12.56744679163337,9.041021817116723,8.863847780433247,6.203445907040717,17.82060927978467,11.310318846458191,9.841942132155712,7.185292379857902,3.6720121203901113,13.128951735887501,5.908245970982811
25.78213797610534,22.366304645782026,19.51765115544564,13.206056755814073,8.315783232351965,26.17975280421469,21.92633326479408,21.79399495549095,19.23783749678856,13.332120648634515,6.098571923231013,26.385042851459215,25.144134942527543,23.127975610639545,19.723291855707156,19.84488603829944,7.431358513907508,1.8748456352431497,26.17956632004805,25.536018486146574,20.515280061282418,12.422852893232257,1.703156650127256,25.852734133799448,19.376060117146366,20.4054466595788,14.500508562622331,12.689898788071142,11.162115341190457,15.99841201959487,16.918825135078578,17.6404551438324,20.224225503931397,13.613478413580241,11.293609438358974,10.662564901515474,21.58489452589969,-0.5450322186199843,22.009934372593815,18.656763568997146,15.417389216590328,12.364340640992554,19.65766148364728,15.152854113638835,13.257397633922208,9.923354948142544,9.359121686745613,6.382313333180532,18.566967196455185,11.566127711156515,10.463802129553246,7.946261423405705,4.413717706443064,13.555452777442099,6.552162715796956
26.567375444420456,22.53574341083423,19.395206698628606,13.530477919988614,8.572831416352845,28.907560497954407,22.5629540595357,22.1352537021565,19.607555942892677,13.405337596232922,5.863482686191604,28.415678425689283,25.661868083059566,23.8198372275791,20.0263927812474,20.11827092586353,7.644841404906156,2.350301387100226,26.70444019072174,25.070331469922287,21.61227772132596,12.87015618695727,2.3938344196104433,26.20194922881348,20.336261769716575,21.5735950861128,15.659899359357626,14.075016103377527,11.628937937029,14.941409647014256,18.519695292364418,17.83553998384073,20.775005441597425,14.506879652637304,12.294796784514215,11.226331993194309,20.882759910814446,-0.1527956164018791,22.650257857991367,19.394844328885068,16.781789236864753,13.494611795311096,19.361899158870816,15.373730153378649,13.425654833894454,10.458348750139892,9.74533299845249,6.206626085862668,18.708856777012546,11.271032770212873,10.761152597134117,8.295976293206284,4.884526955007701,13.416493411725487,6.813144688651675
27.235840385838543,22.4324280456534,18.91195173921748,13.440404651697309,8.821206702658248,31.780912146189195,22.890350885747786,22.131864263885955,19.56141771670241,13.127576271975038,5.253179726575144,30.615671344376953,25.866586724224412,24.047383152525036,19.902134704500508,19.86852639747453,7.482279758646779,2.417207833736969,27.325614144319772,25.36949405165121,22.227503430652924,11.896132588117784,2.6574789931887617,25.919336028775728,20.88952488639396,22.21262176118348,16.652945899983052,15.067367452118694,11.372948404527037,11.201324959666252,20.520197121817496,17.591474707650352,20.778979402865808,15.227188341044586,12.89002042420778,11.464656350350309,21.00142606828341,0.8135651158594959,22.825967923072543,19.599757364311284,17.762797543586544,14.144211666645534,18.422680878740454,15.006914653019184,13.073533296299326,10.562390217307462,10.074989803074178,5.887829082223807,18.203052258233004,10.555247862263048,10.712378696183713,8.25244129177349,5.054515619172477,12.802626350997357,6.675707575391129
27.58167004003962,22.055541303470342,18.15415340268124,12.944624955574058,8.896535181796246,34.29797974878305,22.841493252927037,21.796707678261843,19.118312574521145,12.545161555420897,4.32218881524285,32.59640125637073,25.7505845599403,23.81893768967764,19.353741888965104,19.185797033488353,6.8600546059607375,1.9093996150358117,27.91800235957196,26.336568897434617,22.338565343379855,9.58709190435675,2.258230613652885,24.927147113830056,20.989197473041777,22.25315682516169,17.3997962434141,15.534919308925355,10.390593512104417,5.458010815700435,22.369445089980317,16.970432905492775,20.257092931840088,15.676676515997803,13.05446924495278,11.396799576625538,21.782342252051865,2.2131190100102964,22.441572781585304,19.214045418527586,18.22163707308151,14.295755801307232,17.035954068977574,14.166183407577623,12.327034224560327,10.283261749273882,10.44497220170054,5.685251824293406,17.16970692430415,9.667204751132797,10.391643521000649,7.961040406412547,5.018102459269517,11.94996952703972,6.270535399605968
27.47080514385231,21.423963972837406,17.230805777991726,12.128036166716237,8.65720297570742,36.03237676346704,22.4116872148231,21.175259980100396,18.348141171874605,11.753260032622467,3.19861599743019,33.99136700633092,25.340035935422513,23.196571369978386,18.43331291218348,18.219085354017356,5.836812523258555,0.8299287609599895,28.457339911823276,27.68888092392367,22.02282013078694,6.40358616738364,1.1678966690687327,23.447315917663435,20.67457203774483,21.757923708059394,17.8572184315801,15.485692970783647,8.898504479190343,-0.9975055504952708,23.662310651035902,16.146024243243293,19.36514629531041,15.82104204766186,12.871070085658086,11.132696553140422,22.95364406610155,3.8094230367296165,21.54311563592059,18.32620758306351,18.14392623632232,14.076012048459118,15.4699240484663,13.049687706759808,11.368625421026133,9.738020388634235,10.905368833232604,5.7702766952936475,15.828905797076933,8.85589721830446,9.899767515190533,7.6040334174320385,4.929341718451592,11.123608358302143,5.794816823136201
26.873431036429594,20.564952717788575,16.229442414941893,11.09379790566136,8.012766205266349,36.73051637372748,21.637721247724063,20.311388445076535,17.32157413670681,10.837209797467935,2.035435213793763,34.55089597272299,24.667087734387646,22.244232010997372,17.207537087898714,17.097780495557206,4.570876097154635,-0.6347516564042457,28.995428458688078,29.01378153732228,21.388117905055147,3.0128965165728268,-0.41015325909159284,21.946528504677477,20.028636433709597,20.863910960565917,17.974348581348742,15.002247988087854,7.2237925018686795,-6.708472703103302,24.213725084800963,15.32639296433745,18.30311188830479,15.650403447527454,12.44495707406006,10.790164860316777,23.891908786471152,5.297083431806416,20.28358136100847,17.111723400327737,17.59494440265516,13.662022983194491,13.972497528321998,11.852127465169712,10.364318858600063,9.038182028930747,11.39606551425993,6.136549468016344,14.42040277919592,8.26803394829717,9.303554351427003,7.309165954867499,4.919066065131327,10.508708576983093,5.417624684314318
25.859907743170453,19.50297271927561,15.181031556418155,9.905953482904538,6.927108935732439,36.348387749590664,20.56906930409428,19.21975547044411,16.075018218543864,9.825945344119976,0.9537076525391708,34.19732771602563,23.75043728526318,20.99207649433489,15.734424726419554,15.87740344285206,3.255312129396284,-2.1545989849846854,29.606253154519763,29.876789784440888,20.51483623532323,0.07145475047671468,-2.0915247071687366,20.987129404798683,19.142348952817308,19.719647100023117,17.670867677283468,14.17153368291961,5.6690071897195935,-10.525724184022126,24.040053851743536,14.678695159382638,17.222951567885882,15.147358161046219,11.832115575270638,10.424269696500039,24.010913650422925,6.394849462410289,18.872887143346816,15.76111472080429,16.66872236756747,13.183025557153032,12.697100843270384,10.693449816643739,9.413083942827233,8.233995492930529,11.733937860308647,6.589763163822699,13.122166373484683,7.892639652142729,8.605273584735592,7.0931945930825755,5.024987031355032,10.14382486727478,5.210758867847672
24.584351401352077,18.276957327455577,14.069554207050494,8.57670719740352,5.422448931921559,35.050240887828764,19.265137397711705,17.89728286009328,14.61632585382652,8.693965418078342,0.012477477881311927,33.05060784421944,22.614009391460282,19.44871625802,14.07272071465291,14.541808936618427,2.0476030386057396,-3.3565588544664187,30.309359945555848,29.939167028137167,19.42350422416567,-1.9772429718337996,-3.434927448130849,21.014108324805175,18.088506622855537,18.435366340857207,16.847060886416102,13.033443991189491,4.393551592014596,-11.950311937383002,23.28259405621582,14.274717920090536,16.172537153804484,14.271341213726258,11.001541724652743,9.983231889468248,22.9860736076315,6.905983703748387,17.517294966604805,14.415488596944936,15.443936023007742,12.658168772146682,11.684021621249055,9.6039129720161,8.542229513058567,7.312959898990412,11.678375516019354,6.829251687685231,12.012168034253962,7.591743885513554,7.766095420305721,6.871483889674533,5.183262755086254,9.936068748658204,5.141587222247494
23.253228075485097,16.962349313277944,12.874120036230387,7.091105706108076,3.5837493280658324,33.16266041684125,17.811831225343507,16.364300797566226,12.963692373422052,7.406878253775118,-0.7833527079829778,31.405767751401722,21.31913167726365,17.649156673747193,12.308888277987446,13.05625443608577,1.0276744581009716,-3.9395253883445256,31.036330551219795,29.061310983652568,18.101326995082452,-3.006782899538184,-4.089890523478821,22.18448668825552,16.931784207669587,17.082568993228332,15.440247009489001,11.58858556028324,3.3719289580438385,-11.227746058431281,22.136856423768656,14.085218478981,15.111039831164033,12.992482797748627,9.866133667456065,9.3329087659835,20.562443520542832,6.756898167164038,16.37815326197089,13.147353393341032,13.987645429502342,12.004030087296288,10.898390019076714,8.568571402013337,7.744147800551032,6.2479362906788065,11.045983548028783,6.589622308207218,11.092969920936415,7.195637883022573,6.772376984924758,6.529618405315691,5.277759712161201,9.747392437213097,5.128163779748088
22.07268000562105,15.671689460323787,11.604346485153208,5.4468662783064,1.546168413459811,31.07815765935343,16.32685974596238,14.69691452244074,11.187495927893298,5.976570964245254,-1.4608120258662574,29.643307059470597,19.982529600619625,15.698375319123402,10.57609487184681,11.43061539421932,0.2033510103585563,-3.762788722462003,31.654637441046013,27.350487995829532,16.561828890202598,-3.1834690791067395,-3.9104522789162663,24.296735185817685,15.75687486939019,15.723936922814097,13.492402355938205,9.850519957517369,2.446872034724855,-9.159469725479392,20.80140425262023,14.022197786095262,13.978389368697398,11.346755730746002,8.365885727561068,8.3366604940652,17.214800016877223,6.027604537926053,15.564017375432826,11.989199086664875,12.39368120118336,11.107329213914968,10.286606628449832,7.588795486261791,7.024123532136679,5.056178524894706,9.818054385759794,5.772965012005203,10.336145191173543,6.60590582756858,5.694736504404734,6.004380036430927,5.216375933823848,9.487248688378521,5.110117616306407
21.196628037264354,14.539120613321181,10.3271325430455,3.6986560048888695,-0.5215047010857274,29.149872911852597,14.952770351484949,13.03953527340953,9.431330381343233,4.498007234810593,-2.049203408537421,28.115781873280802,18.769512708242573,13.785208500694532,9.04459556785173,9.762307857072553,-0.4595867237074067,-2.8963944562881827,32.01714075909095,25.11810903339436,14.892840931614316,-2.8497934280788506,-3.0030547868710746,26.826198227804188,14.682879891487936,14.44315187669136,11.18590498664213,7.897723795951061,1.433200842391635,-6.751591678176892,19.444003561481694,13.988515470146268,12.766833793054465,9.473672875750209,6.5446437109574624,6.938680431306963,13.470797964687097,4.926709206266684,15.12880664821743,10.966227895911597,10.80754659964949,9.90953387896135,9.82373509399157,6.724290090176265,6.427646952555589,3.83837460432621,8.190163693927083,4.51326058675903,9.729525387482257,5.865902878828609,4.706058404153882,5.343441589915312,4.9927042139235684,9.178692738691883,5.107939989182177
20.69086673652164,13.68454297786085,9.165638250730744,1.9743248966043385,-2.4386406982412394,27.60886759681792,13.83408112094684,11.583897031738882,7.8940121758517465,3.1449790453696016,-2.5557687487369165,27.04754520189767,17.85495961041374,12.150435959758093,7.881986567734011,8.235198470625154,-0.9999541878262939,-1.6045517830629357,32.017666701092,22.767406477129647,13.27158317839163,-2.365984163780954,-1.6914871081048508,29.07543041412696,13.852624734480328,13.355884061439678,8.827174374337845,5.898690519127081,0.22739919930161534,-4.847823956725495,18.197049748962055,13.914905221687922,11.559318919616713,7.619895995626996,4.589684722011295,5.224250491017065,9.888647795807163,3.7400230686538416,15.071662965810091,10.122197845387443,9.427893673333378,8.470663092468387,9.531233669160954,6.0970937307345245,6.03852993355803,2.7749226895278922,6.535430485495588,3.1467727264697993,9.30808692814375,5.161099370145112,4.047187093317277,4.714579823711258,4.713635464391572,8.961516192303534,5.2326195230080215
20.519761547721302,13.169332149333577,8.260349020901792,0.45255377827669996,-4.041150661586598,26.524027865068845,13.07565266479301,10.513311701440326,6.773894403424667,2.1214213745078068,-2.9633140600182397,26.477148255969965,17.364344300642443,11.0164737277925,7.2015827379708535,7.065259134033814,-1.4324145588108657,-0.2635290368540999,31.63186844956686,20.655054262760018,11.926526553731478,-1.9748508451480724,-0.4042994644132447,30.38584285445332,13.392777586053024,12.588713157488584,6.773296293694871,4.091965237644866,-1.1228336007626254,-3.8670547013543892,17.165909730742833,13.774251136853806,10.522940536678659,6.086761751011588,2.8031241947250685,3.4208483425227407,7.491761382416929,2.7651838276539165,15.342522831041482,9.525445874060415,8.474972904173027,6.983222158284571,9.453196807720122,5.8473042993363045,5.94758591120498,2.073543301055325,5.2942442804337935,2.0985225550296165,9.141763352204052,4.749482837994381,3.9430490316725617,4.348014730663433,4.574312134060865,9.022571643085847,5.634421219225085
20.553094044856053,12.96308700305741,7.715019201009632,-0.6922075582674392,-5.213629627947518,25.809689667285696,12.699814390214799,9.936092496254101,6.1971296399754126,1.5806158659331073,-3.2477042883254548,26.263020534788932,17.3172371945795,10.502768336742234,7.009781960728042,6.4191181090964,-1.7431228783955426,0.750635552638061,30.92545681556826,18.972478769723203,11.05809863146149,-1.7428300061948185,0.47135835619019506,30.3271484599473,13.361976998042882,12.235719261225068,5.328658069309919,2.719728998917555,-2.423877766200924,-3.743598981468418,16.4292460192898,13.562076183369978,9.844640549389416,5.1414419167359195,1.510087029680708,1.8384941332778255,6.593814605686692,2.240844673888856,15.840374788541755,9.237960494832546,8.11956023481123,5.713469598502082,9.611912776682487,6.060986954744788,6.201363053377085,1.8919135636406366,4.823013343612703,1.7266882134198753,9.295113214731241,4.8538800727525055,4.509606851344213,4.445766923441727,4.777251330557098,9.501120863710376,6.428433406330583
20.598361514314234,12.937864382173707,7.546997785924098,-1.3590490734182072,-5.918912445811748,25.279586637573583,12.624964702239295,9.832818880150437,6.156715557151284,1.5498854979499859,-3.403964573970846,26.14727864623364,17.602360955319575,10.565976194871139,7.183391624390169,6.337873907936921,-1.9098635034915112,1.1697235735978908,30.0215566053818,17.695215240395928,10.755665503074503,-1.590948398806031,0.7093316889951575,28.811928501342738,13.707892791261342,12.310292682769354,4.649055111248957,1.9395716036805783,-3.4108958759307413,-4.07046754190368,16.035398938617035,13.269217981244452,9.641766016458055,4.925196788872702,0.9464621604300412,0.7718882453192193,7.052137713194032,2.2958671475650343,16.417211107031292,9.274749481552325,8.411364250883656,4.906658951628829,9.970097343342552,6.7076677895962185,6.762730907160149,2.2701400814504047,5.264646303712477,2.1888391689865667,9.777923659125008,5.558047903488467,5.690361357258357,5.094108345115668,5.442627344445869,10.403568918830015,7.619596721677197
20.454429011899055,12.898926127599637,7.66313918638631,-1.5682857099430354,-6.2124641750807,24.727534862362248,12.676909027340823,10.044044702355247,6.494039092262864,1.8984362850438066,-3.467444933756825,25.858359928683633,17.997438572072003,10.997305061819423,7.496956709425768,6.698734555670474,-1.938718876768025,0.9000675862498881,29.05001824844695,16.62670975822571,10.944457104538522,-1.3886010517656153,0.3023192032448998,26.109533123059908,14.258034057265858,12.71650213820934,4.688133743124242,1.7593100571776024,-3.8623726259550892,-4.3511366749977665,15.993920493843484,12.865429868005553,9.902406960291819,5.391639840908587,1.1650465598036668,0.39582868838960517,8.518419010700757,2.9276802186122213,16.8984918263347,9.577866608574954,9.243409374870003,4.6947205711222555,10.418528116824042,7.619935918915541,7.505444236591588,3.101393054626173,6.491309299522945,3.379758140485446,10.508535694174261,6.7541511577696935,7.250249835292786,6.2121944921842775,6.541220741635989,11.567183709070484,9.062073836853603
19.968216378566147,12.644899932624586,7.879223815604853,-1.4671632818604028,-6.23869952253873,24.00858306713755,12.642617140590822,10.315476628849904,6.940067462715452,2.3659076801345575,-3.514145816502415,25.216244516454278,18.234412598670804,11.482712650962961,7.690397350563345,7.243792600857522,-1.8911587033602508,0.032722971267836076,28.10581071460913,15.510570970624501,11.390557244776232,-1.0595612509699102,-0.5585001407303158,22.753263249594543,14.760343369468764,13.26188333005383,5.211771848089372,2.0200947848148463,-3.706163802988847,-4.246406620238034,16.26284735383274,12.299879575044617,10.472243360299748,6.309153561841695,2.003492030529525,0.7023726421040206,10.119215840963182,4.010358670959108,17.11603016860739,10.015027545458546,10.364569643101246,5.038129453370113,10.803898696781662,8.53433694342036,8.245146641294417,4.155156791962467,8.139312335980517,4.96247875877995,11.317393029621599,8.16504489251803,8.84217242794627,7.560113547144386,7.8789002892932665,12.700891642013826,10.485207558791561
19.080718283878376,12.038538154670889,7.976307691668303,-1.2845888933480598,-6.200974954160997,23.094616498980603,12.34840870589075,10.385134821030764,7.201516960705011,2.6484105657062704,-3.63748078209143,24.19729295447402,18.09481683623551,11.712940153420469,7.559030429621143,7.666545689385839,-1.8786370951025653,-1.2039303493031297,27.233701345993314,14.16437608817488,11.773845363709839,-0.6468550540369442,-1.5724468686202462,19.37497527244405,14.96139641220826,13.715930733751826,5.883112715813725,2.443006613270585,-3.0645796038120565,-3.709945656142482,16.75009609002381,11.533586535471496,11.101881779878346,7.329700696224263,3.1309838366671094,1.4983614753409307,11.130017961163379,5.327782757398306,16.955906458111457,10.416610015232962,11.45148893148181,5.736348167727174,10.986758429631067,9.178451420019808,8.798519985143985,5.152679127691615,9.730960098989513,6.483091784626984,11.99016168952712,9.434036098665608,10.11784036477581,8.811576954459088,9.147778342186674,13.485476729297062,11.581566084842468
17.841200402351937,11.054094309857703,7.768534800849558,-1.2540838832866843,-6.313115404166505,22.07132009987192,11.721709452028938,10.073681703278499,7.0606346791390395,2.5079497976174947,-3.9128762019925247,22.93105831509411,17.48440184065805,11.492818597077848,7.025674697148845,7.715477316683338,-2.0278705192904773,-2.533182619259152,26.4449278276296,12.591747233256,11.804059460183339,-0.3076910552864156,-2.4505417619888226,16.540934217414378,14.699313493800902,13.889623929436247,6.378900232937257,2.7276188454626027,-2.219545957546657,-2.9666846229021804,17.3353275539326,10.586095735115409,11.541641533544121,8.106682814001863,4.161586669503446,2.468328010667993,10.861804640966955,6.621269862568731,16.399895260090513,10.639607859906615,12.212888644441358,6.500430822107939,10.900597552217814,9.36867563954112,9.044677574843726,5.859547848017735,10.831876644802694,7.52243437256625,12.332148292389737,10.244658581358905,10.839576429684922,9.665434377370605,10.020902603030068,13.694075328539268,12.116043930593989
16.387907263851876,9.787463209208852,7.162371721639779,-1.5337452178001083,-6.745648709809966,21.094140870322377,10.822272558845901,9.348095704958705,6.4506231082987044,1.8649915956061518,-4.361992561644636,21.64165906352842,16.463877116440283,10.806954727716318,6.167247564539118,7.280231256796211,-2.42933614692949,-3.7224278916310687,25.743288875638296,11.005845223947793,11.327880721219096,-0.24270537959294458,-3.0240528559641495,14.633334621557632,13.969439880393418,13.703345713611458,6.494216216370932,2.657725318726124,-1.511264932041449,-2.364958975059766,17.893272202003264,9.563963061041786,11.639300396090865,8.411768132109136,4.786555292564326,3.280734333204546,8.953132493307624,7.637816494040799,15.54200103402858,10.62328819616129,12.48073596193233,7.054046871678581,10.584217179180435,9.078260625975158,8.962444825730975,6.152726867052179,11.18557949821643,7.827214791651826,12.2330188202352,10.424902569743917,10.948936272058875,9.940017673252722,10.256960879607512,13.277068733890125,12.007300653013694
14.90501832543182,8.429241116844175,6.190348437977967,-2.147366289519665,-7.57102888780686,20.322678184894666,9.825856928262551,8.340399279204295,5.479069514149249,0.8359472703865789,-4.934446535118498,20.556621205593363,15.234870628866933,9.826026865379045,5.1904969800209395,6.431131684529601,-3.090017536939616,-4.649293290147439,25.153146419375986,9.751024937702745,10.38506525986427,-0.5926354481704443,-3.2951738380602213,13.784366653401209,12.931474179082619,13.21653746511518,6.2035457265294145,2.178128694703675,-1.2114904976686987,-2.1763674894712306,18.313427593353346,8.655641751875626,11.400630538609901,8.201252330740212,4.868633122395924,3.686590799614137,5.5184646925027785,8.172345196568397,14.576215740530216,10.412509734528747,12.260489877423216,7.222060354431621,10.170439230736921,8.443974170798715,8.630583136442842,6.049861832933805,10.780264264911853,7.372546741831597,11.702513937044316,9.99809221497193,10.57120130775295,9.634226535700005,9.775085685697897,12.387575751422965,11.360501865639428
13.565280840011372,7.20232793204137,5.000560459717327,-2.975557409432108,-8.732468650765725,19.843304711974934,8.958408071732649,7.302330188678094,4.388690423954384,-0.30517326104952236,-5.516955096484525,19.812065363368962,14.06606032364957,8.839286209183088,4.3574428978271635,5.38859901276376,-3.9104645921518575,-5.317655136458027,24.73360917914651,9.177827902294828,9.197038555116421,-1.3519740210611353,-3.4170368901387027,13.883894830145616,11.861042792586524,12.600818810306126,5.6431056247710405,1.4057691578903349,-1.4210893408660041,-2.4443603867163777,18.52368412546975,8.084370277238635,10.980484270959932,7.619837227862808,4.475570854180855,3.5888028618054757,0.7350631312765366,8.097267874994216,13.746505500014123,10.143458660232522,11.712633957691265,6.976417352302443,9.836887299860688,7.713927170342867,8.192668066891633,5.685529471795215,9.827637031521189,6.340702118851752,10.865253229558881,9.159487342289466,9.955133537024771,8.927347781421279,8.675827675124596,11.332146497372078,10.427245370553102
12.488994653820203,6.293318157601681,3.8085432205453102,-3.8004346764132624,-10.05086599966971,19.63505305300663,8.416517525260256,6.515893316238002,3.4692783322355085,-1.223386393761861,-5.965462404919732,19.4128032484665,13.195849964734474,8.141579246979123,3.891714412507576,4.436408195000486,-4.702897837296366,-5.82246037424199,24.55579659894229,9.49206578956168,8.085580894861565,-2.3406318476988766,-3.6153334732594855,14.652073049203183,11.055039003837267,12.072102633749545,5.036950665795986,0.577033997249254,-2.033182589916912,-2.9521749810801,18.50485100916827,8.034059258489822,10.6189913682377,6.933925684747548,3.8307292873066423,3.0546521921086316,-4.475425193683019,7.377630670881981,13.278950802077357,9.992168355267037,11.076824405393593,6.424406378400176,9.739520233625615,7.155725494598439,7.802378210182885,5.243030398534861,8.668002558675127,5.033441529959726,9.919772110028099,8.199172480901481,9.36646957393161,8.097169756267835,7.202115746646998,10.452552740111411,9.503009547241291
11.719948225257964,5.7959586315340905,2.8305496011847495,-4.393489112503429,-11.26775675076323,19.581653346964195,8.294227757427597,6.194311027131152,2.95232862982611,-1.6513477717640699,-6.156799109626739,19.25067138004032,12.756280961936742,7.921715652144604,3.8975226214408147,3.813337836098417,-5.250168613934971,-6.284617209350822,24.66942932573887,10.648896727825369,7.35425042111985,-3.2539550197894336,-4.079540020906225,15.734332499023276,10.728476838437901,11.80634264361385,4.6022764895130255,-0.04491793348727491,-2.7794938193501864,-3.318645659403341,18.28367026719384,8.581646510100947,10.548903455332228,6.4192694177746805,3.2015566701040505,2.2648426317694983,-9.07939891274425,6.073673337060605,13.320206762766784,10.10286089879795,10.576277226137451,5.744602300903368,9.948913311897183,6.953610094900089,7.564818833843011,4.877987009041437,7.635993721394022,3.753259846673562,9.067767372135611,7.3988568592815716,8.988090673824193,7.417094186549999,5.65075908188428,10.003977062411614,8.818946748077849
11.226115595442735,5.688173100886941,2.220438256994079,-4.60712543988762,-12.115079878950795,19.520157911948974,8.546676757444592,6.405356638709033,2.9273745944508933,-1.4985133701528826,-6.038982127131273,19.165420948034313,12.736269559402071,8.196359784388646,4.319097302810598,3.6264074179121666,-5.383198912787808,-6.782281821902492,25.067572297065144,12.358780810133966,7.1792116701894875,-3.7729875175935526,-4.876999535150488,16.786553419528747,10.942939701326557,11.866558370723485,4.452873842098024,-0.2783583830888485,-3.3391267464188346,-3.174706336413367,17.91313514931264,9.65242298052219,10.897589783842369,6.252700009903213,2.785390115492124,1.438129360259507,-12.48176048306983,4.327650629357135,13.889896251838302,10.527278664639482,10.32728792844935,5.105000844072647,10.427267940152522,7.149857212449721,7.5059633295972805,4.664072386224124,6.9478804032627535,2.7035048149342957,8.454644921509797,6.944261693335156,8.865902709592396,7.0662212565517954,4.274091941562766,10.074047132995794,8.46628301778265
10.936433736088812,5.85274384082961,2.030331674822129,-4.431084654761198,-12.392579553778344,19.32048221125732,9.012543083979056,7.052726632547087,3.3129903093913358,-0.8896780138296068,-5.6557207160708085,19.033365789814095,13.000553280703876,8.814180257740189,4.961968125570114,3.817565147448332,-5.0514459700764185,-7.310917907046635,25.662416953007288,14.183483991402687,7.551452854840803,-3.6900223258252716,-5.918484630321919,17.53894890921205,11.595135260927231,12.179944540674551,4.55711423779986,-0.09092979205139962,-3.468489365677833,-2.3450887385992747,17.459990638438384,11.026346816740872,11.643175425956619,6.451224601651232,2.635168412875597,0.7541466702037423,-13.964821882161754,2.3416534398672875,14.879975044985237,11.205128740373894,10.304345451018994,4.6051762267024525,11.05560659757705,7.6495606764936035,7.5813583957622,4.580682952269621,6.649369922670039,1.9431325486656785,8.144896775438283,6.890240324908873,8.913910992316437,7.068592742089013,3.21100302548045,10.564757801877375,8.377783789511387
10.778279293150291,6.119712010291855,2.2013372455328053,-4.004841005235987,-12.027935363303026,18.946078410163118,9.477164578289145,7.911888250691912,3.8877861803699973,-0.12948717272704702,-5.139679822620517,18.832299300412092,13.35197119896224,9.518331168697944,5.558698808915989,4.188727780819211,-4.354852985466604,-7.783506362875892,26.30444586743354,15.69730216530863,8.29329386104272,-3.000519983993822,-6.984165929815389,17.83761149587612,12.470940610662558,12.569879253219721,4.76222181516871,0.3917879264116504,-3.1005061003553465,-0.9522606773013089,16.998268284160545,12.403132932858254,12.632990089995507,6.879191610696067,2.653430570648535,0.29996575118764257,-13.39010251973276,0.34838208920208746,16.09582731089086,11.98988529481862,10.373967330884183,4.258589766960123,11.683119056007271,8.271971422680355,7.7034491336143365,4.539334135395322,6.626946871328541,1.4005937443235248,8.121330972954313,7.172368098359786,8.97398428280079,7.294865699752538,2.4625183235513046,11.247278591768087,8.375016821415212
10.706294701398189,6.321599056760568,2.590377556101565,-3.5728457469133463,-11.102519177865712,18.48784440119178,9.755347233004663,8.708480594185385,4.371368429631542,0.40102009284668494,-4.677135136218641,18.664386528749827,13.61528846911036,10.051544279713161,5.855436103162796,4.481146421480685,-3.5207321604114803,-8.06696530655894,26.82529920352732,16.6453222979244,9.128430472313308,-1.9184468758341175,-7.805597477984718,17.651429727051802,13.328220477966465,12.82700436171099,4.858121937181155,0.9361880580312008,-2.372834029789473,0.6167906141029766,16.6014673195317,13.493103573436851,13.641936917891433,7.308552904046403,2.65131881137329,0.05976197359503255,-11.074158913937719,-1.4276793275213633,17.31057810932673,12.704280958468111,10.363874669959253,4.015561660922588,12.193527223622993,8.835852023248695,7.784618032213194,4.435230920346211,6.675237438399733,0.9306718761081794,8.318594665230542,7.660339576345112,8.899877811513685,7.522529093532601,1.9163409807635667,11.863913895322007,8.26034989334736
10.710848109078189,6.336774220940213,3.013542990718605,-3.4013959380000482,-9.842242118474488,18.144667149948926,9.756339521636788,9.206590609324703,4.518805993942419,0.37677399521953614,-4.456079159344209,18.71696818858172,13.700244723252041,10.25068593388219,5.687498686746619,4.468384999931037,-2.837798967594683,-8.047611433461354,27.093342136779402,17.038819801114734,9.784958956254592,-0.8088688823167551,-8.165748466131745,17.06403336989258,13.990380170210612,12.794058781172478,4.665987160224853,1.2941059665428032,-1.5784695665774109,1.8503016917440382,16.33477656992889,14.113525630312573,14.461484721866073,7.516413304093172,2.4475298308833366,-0.05843975741205787,-7.521378733850906,-2.814321047255164,18.332704215437005,13.210843810273353,10.151023813547456,3.8166345548530196,12.552384658292915,9.231637202682276,7.773652583340995,4.195643828685455,6.583325880238767,0.3869120379474045,8.665801689758315,8.220436683595576,8.622376122691524,7.520965195685324,1.4114517592159737,12.226238410989115,7.904874846889823
10.794727509799149,6.10428924631963,3.2849563814566096,-3.6941966440903524,-8.570052834215076,18.143358404537853,9.500587308446995,9.2660903526705,4.189840441080894,-0.36742744379152814,-4.6142005812837015,19.17108923654821,13.612592725369687,10.085509377176757,5.015919314659926,4.023438802723736,-2.5691641255318522,-7.690578960627773,27.066351027196976,17.144663658770774,10.086919624632113,-0.06590427571485336,-7.979586245305334,16.256427641861013,14.403031264536649,12.421751279790055,4.105730780953268,1.2898151792703647,-1.0599123038841398,2.29399273754259,16.23552647704532,14.245679533868989,14.968888182942395,7.373458253463264,1.9600288245151027,-0.17702987816931914,-3.7580277922429666,-3.7262244218787535,19.0510556518988,13.458155621346343,9.723624530137064,3.6367536948942196,12.801067824218112,9.444747262338428,7.661803279160177,3.8023222993889436,6.205585704156259,-0.3206523880626482,9.10896685293434,8.751098906610832,8.168304819125135,7.12509557084341,0.8092575617812572,12.268245764195905,7.291610162822098
10.941006766881205,5.615213992616524,3.251901088336801,-4.536006478901394,-7.636291828361176,18.64765625432242,9.087749094955415,8.862693285034101,3.3754043156379767,-1.7931865558163347,-5.207523775141343,20.107686376561666,13.424700302627532,9.642239755211142,3.9167573798662447,3.144996918242005,-2.870957729833382,-7.064205671144743,26.805497166633327,17.351378278772913,9.986112213188374,0.020617586924810638,-7.326495585400344,15.462569312988089,14.616892210509777,11.77831385455632,3.2172026871161434,0.8739803650041846,-1.088290244880561,1.71638547619785,16.29202648671761,14.02421802909049,15.146695703868607,6.874792571066093,1.24125765917562,-0.40785488844378426,-0.6934939081296072,-4.171593929176958,19.440800445842928,13.479586869374451,9.181606150099983,3.4963065150174537,13.011576180577329,9.527985932232891,7.462779353550067,3.2832159515120938,5.492451587289881,-1.2058434539562133,9.612714505347608,9.191067971101976,7.631180646153574,6.285866327648964,0.038930255614208154,12.044899027815584,6.509336950529341
11.087907954900505,4.892194994154067,2.8186991807910218,-5.878316846956208,-7.342706706394799,19.67999690236738,8.634617094015614,8.067353062559963,2.1780278119878433,-3.6847287612920647,-6.205323341687565,21.445245791947702,13.21633805422319,9.060786308076542,2.537029551805092,1.9362144603462967,-3.7531931009011608,-6.3324202120338295,26.450215502099887,17.99831207936243,9.543424203367625,-0.6452198826163063,-6.427172048928347,14.909587162124788,14.73126108846615,11.007911134697487,2.129340651592359,0.12096923947309257,-1.774511082618794,0.18006715733457157,16.440273686652624,13.672212490050843,15.053713114829792,6.120620723431125,0.4541043646419034,-0.8250619263021242,0.8380000556651233,-4.242543485300277,19.538510158388842,13.35295530761487,8.681535978831688,3.4377293018127184,13.225511832979024,9.541174970580396,7.185371782394567,2.682044022509554,4.481048361799025,-2.2167325334119234,10.137228232463562,9.500344217693389,7.110661089870346,5.08058628800168,-0.884997872736839,11.677924140583642,5.697439580527285
11.131238478891515,3.9771579442729346,1.9604567180502315,-7.557981850916336,-7.865974304533725,21.095599909244214,8.218012435077107,7.004160371447948,0.7675674489710618,-5.722964608819557,-7.499889005334039,22.94627820577244,13.021360211299218,8.462682404855059,1.0496691697522431,0.5597380840037731,-5.091949634688593,-5.709593505343458,26.165027771208724,19.22018230829974,8.875309767066444,-1.9456272071408343,-5.573880587747836,14.752045672900723,14.813780497028263,10.2585203924729,0.997020393888286,-0.8189023712207391,-3.0395269149869435,-1.9970942091157047,16.581444979852407,13.405026102100914,14.76838351817919,5.259280728850113,-0.20075236067925673,-1.4561510371326958,0.4538768679197922,-4.081281895267565,19.399579080610884,13.140684904425019,8.353411872026607,3.479272094195553,13.41329402679489,9.500815948192166,6.821592223138774,2.0308989803908957,3.2715676888562646,-3.2558499910237564,10.619985165855644,9.638438245261593,6.658744727706662,3.6777646703547298,-1.867721507397547,11.281646274578396,4.970739118490758
10.955341415734495,2.9256737578665506,0.73006452010587,-9.34837991904456,-9.213024032759083,22.6137246554444,7.843638845701381,5.808814132489029,-0.672048437368491,-7.585362222397042,-8.93416675756704,24.282402732579076,12.808260735060184,7.902987269577835,-0.3880786577937121,-0.8158909267501384,-6.671556249556051,-5.385698299631981,26.081935657554443,20.861583031723804,8.091154183334545,-3.59254953223709,-5.029118038810185,15.030535979623126,14.841641391389103,9.626941297059151,-0.04816461896881785,-1.7764343911151084,-4.646067104586173,-4.359933573628181,16.613936087863962,13.350040502830188,14.343835858902162,4.41832041788806,-0.5786116704955937,-2.2829754236955995,-1.3739706509634395,-3.8184233192923918,19.072819572818087,12.8486031462222,8.239022600347914,3.575926615381038,13.469739154501656,9.3559007627458,6.347104163860484,1.3377732738187738,1.9916684424307922,-4.212558923591811,10.970333529196614,9.55646415757806,6.257550780301653,2.28709325613816,-2.7715623683634774,10.912031362317176,4.371076516946714
10.48118430719995,1.8153140770803828,-0.7414146974025826,-11.018714440467706,-11.212245397165429,23.89417220934063,7.4574681764950626,4.601915080307438,-1.9810647028804054,-9.03287716237607,-10.337719784673522,25.13618217845357,12.49855756541611,7.367049714119929,-1.6555368536152377,-2.055006255552274,-8.251872881829502,-5.464967007923532,26.258280332734305,22.532424467861695,7.256971795170087,-5.231954696310961,-4.943905170612566,15.660826982365757,14.705352582126022,9.130261229724042,-0.933246523390372,-2.622946942896453,-6.2826563024427315,-6.480068781245533,16.46193789275123,13.501757924132654,13.785442505629339,3.6595314060780724,-0.6514637121819469,-3.2444019184402246,-4.15567249972322,-3.5336016326435535,18.586897775951137,12.415187786388259,8.267054246402841,3.61114028165782,13.251559544486245,9.007094455598338,5.743129574517093,0.597020926051504,0.769102118221368,-4.985629871536997,11.078689840840847,9.206714837008711,5.835489444560295,1.107793503700133,-3.4632713891599365,10.554435620461085,3.8620237899465932
9.725243819409144,0.766820967980471,-2.2478283612839007,-12.367076684482091,-13.527353473739769,24.652597158041264,7.004049858726251,3.4963462889808268,-3.0288226388577284,-9.942109612869988,-11.547634023789904,25.318001030601696,12.028885470544665,6.820274802941784,-2.6529451508056345,-3.0539382942374074,-9.634704245629397,-5.940501807191017,26.656592102191595,23.75595693845711,6.400131196661177,-6.568399589702832,-5.32710277792411,16.446266885166285,14.258898722997696,8.71538676754393,-1.645632432503794,-3.2993045259154936,-7.66506688633023,-8.090233061952043,16.099015807337743,13.731230770125391,13.06556790329381,2.9736172726988337,-0.5161059496807603,-4.244878703153013,-7.100907510198578,-3.2418986644447036,17.952227653365586,11.739786634510168,8.277193755275873,3.435013512388432,12.652376717993302,8.375081830923616,5.0388991042427715,-0.17939006403507252,-0.2678197805705773,-5.481907817131992,10.86291187990741,8.581730089153279,5.321583963755641,0.29039652797885274,-3.840471281451856,10.15858186012808,3.3698050743609143
8.827021862205958,-0.0554669997367947,-3.52837046041968,-13.236018144037542,-15.7175034448012,24.75035771835178,6.489323894923057,2.6139682204348302,-3.706294093346517,-10.29481159368417,-12.420856586142694,24.834222595900673,11.414874531367527,6.271592072650611,-3.286034551689979,-3.7282374401271765,-10.690224365444994,-6.694201727040207,27.164810859046213,24.16116466351368,5.553575531672073,-7.44033576172362,-6.048773451855143,17.141353866595527,13.41043206176027,8.314936489586618,-2.1876774016183433,-3.798383037144463,-8.606910200777989,-9.130004716820793,15.561481932083842,13.857584652295232,12.17813084975492,2.3218267367869836,-0.3429369211562623,-5.156562138906082,-9.328982681111608,-2.901208301629631,17.1909279692663,10.75396399460853,8.10439906970956,2.9357656039128828,11.672853046284459,7.470087748338212,4.333786310148733,-0.933954728231218,-0.9859086815528544,-5.620505244152929,10.317750610152933,7.753751115033441,4.707457871930217,-0.07727722929444192,-3.848698440894537,9.699187527330556,2.847730497777291
8.030526090046655,-0.46579009783371905,-4.308102126685931,-13.513319468634636,-17.331098288660474,24.23788789298122,6.020318699010483,2.0934510898054866,-3.908940203898946,-10.133607545068681,-12.84085103280386,23.890514444250318,10.785140163653132,5.820312996470397,-3.4583946706426607,-3.9936275592792425,-11.357442261946385,-7.535649027559918,27.64052798516611,23.650894459953875,4.801072175833119,-7.839097528150798,-6.888463632497653,17.53580153472463,12.206129275415941,7.905323878194332,-2.5345744448708545,-4.128116509842664,-9.047318663467976,-9.709660234585455,14.931068285222523,13.732393933943591,11.189272979988102,1.6943687233134939,-0.2860443546276805,-5.825440172167603,-10.503319769026472,-2.4592495706632134,16.36107848045104,9.485754712491254,7.665179846912486,2.108044244964566,10.460338238416956,6.433258734229224,3.7966629189864265,-1.5474189011839496,-1.2500213566362826,-5.336992333124488,9.545356998098159,6.888914144183334,4.082815739460791,0.03341238043227768,-3.4807407268187602,9.229290160910637,2.3333339231113994
7.630632270771359,-0.29296317207205735,-4.350544488969483,-13.121374236828496,-17.99999602130034,23.348710065735155,5.804228224043678,2.087089297500351,-3.53048347272681,-9.505657603233278,-12.718540160808546,22.836619475255393,10.373246317921065,5.661321652675028,-3.0726271798174514,-3.7518308931824818,-11.620167131480901,-8.263372872796785,27.95871545898201,22.458188889454398,4.295389043504151,-7.870644710189989,-7.611908921241571,17.528588605525922,10.86209341490195,7.545571279975937,-2.6102530643832567,-4.2686117081983905,-9.029772275544929,-10.00516865480229,14.30302074415066,13.314039578214603,10.257858880443363,1.1530102887909366,-0.4023129123277194,-6.094042523975681,-10.486541974482588,-1.9043712221197344,15.564205186833327,8.0908502112886,7.011697707874496,1.0951989007410767,9.296091171419349,5.530853564469158,3.6382181951286605,-1.848365749727059,-0.9370308860628294,-4.59098611164751,8.757882385255074,6.228543826465109,3.629338879097416,0.608191439575126,-2.7568831499525195,8.898819767630325,1.9688256148122631
7.879635080981579,0.561373927513741,-3.523327712857842,-12.026122620767898,-17.53427322949715,22.42460181360039,6.079861709502699,2.7171308638754565,-2.4946329700924847,-8.442389030324495,-12.006251879645863,22.056912090739345,10.444658749619062,6.021208913625717,-2.0675793008553063,-2.9191804490108337,-11.467939136654447,-8.70832390233913,28.05659814861494,21.080811727618,4.2421258769212775,-7.668562725462518,-8.028860410754753,17.17669137643841,9.73310969225752,7.384268361697512,-2.287268611159027,-4.145890948001524,-8.641226360575054,-10.145535289613832,13.758362748025801,12.704252850743687,9.618922181115972,0.8436235385999056,-0.6014049096335974,-5.829808556944329,-9.671182028082068,-1.2912137588464487,14.936159466943533,6.843073472618703,6.342424218343637,0.17881523308653025,8.51416440106248,5.07995712759671,4.0423597150113135,-1.6635768823421402,0.027550283456576175,-3.3959470431839303,8.225837048130547,6.023898766857118,3.562869846139238,1.5997266894738507,-1.7167012994770103,8.911552205429714,1.9566970007978446
8.893813103889862,2.0662599179803953,-1.856411427769423,-10.266124721744669,-15.989857133682179,21.80747300639306,7.014816953823578,4.012405996583342,-0.7994831038121459,-6.973600709855689,-10.718469816294617,21.85266187286024,11.189449738683958,7.055380971345484,-0.4684033835466712,-1.475432435526069,-10.887539603338237,-8.770452441848152,27.946220668261475,20.101705453300674,4.831767525031892,-7.324739690715216,-8.032463555836124,16.67626824483224,9.202901915310228,7.608430388630958,-1.4342111155619919,-3.6493441959467514,-7.961371356141214,-10.160377436383984,13.343222388778873,12.114331903333877,9.516204464914859,0.9533623675573026,-0.666553684184759,-4.966370734524453,-8.707052511016467,-0.7311403043003653,14.607998632132798,6.0616838976489165,5.937806528993714,-0.29864511222895507,8.389751286789608,5.3339103515146356,5.091685389075787,-0.8798769926869636,1.625662259791521,-1.8398767149076738,8.191831375478253,6.449235826270455,4.045060773029753,2.929725582701405,-0.4172175631254347,9.442733399165878,2.4743827333049877
10.59743464881394,4.038190955051117,0.43192359779389733,-7.982735701413299,-13.675916223145347,21.735187310706756,8.61111770690969,5.858959234534612,1.4349462797623191,-5.164540085615614,-8.950369906843953,22.351010104743697,12.623971179824515,8.750187254941485,1.5814611099001228,0.4889848368386511,-9.872976919809982,-8.431308047553548,27.699319827415753,19.975914186758473,6.147226227259547,-6.853404080838072,-7.611573782666382,16.2918182654703,9.544327052479707,8.36124477411716,0.01341554326772032,-2.6807500000477997,-7.032778672667973,-9.976649469347526,13.068267398215642,11.785203062511032,10.106821494197549,1.6325647637093739,-0.33945759295614764,-3.53914550823236,-8.143800183421558,-0.3445401506069805,14.656037584265661,6.004468274154399,6.051508803283382,-0.04864603377547416,9.034346353563858,6.375518755802336,6.717376747256791,0.5069198009139728,3.7181227611845094,-0.085986645450574,8.779671485619433,7.5260157602948565,5.109105006721974,4.491739918610424,1.0669551695418051,10.551182130433821,3.586318550353254
12.71631204226157,6.1580715241130575,2.9539309851089683,-5.440416392543154,-11.101339138883613,22.27275190707781,10.64994452268277,7.976569667993057,3.9395190147135866,-3.1633287033163784,-6.889134258692675,23.46989663548868,14.538644790928604,10.868993766119173,3.815054670369439,2.741593300572366,-8.45293264289013,-7.740698366021176,27.41209066880985,20.86059719386489,8.092952935776903,-6.195322598288261,-6.835693478174828,16.255800007442286,10.8057466710208,9.66578321565095,1.9917386736511715,-1.2142797712511584,-5.860620444642166,-9.473317891386062,12.925817867555205,11.88612790294089,11.38319677677305,2.9187174795717277,0.580211264633089,-1.6933816407199251,-8.477715722415564,-0.19784271953084342,15.062745667947993,6.767600670191833,6.804724410232615,1.052597940989012,10.336876954827538,8.059941315625021,8.690162512849652,2.3637134684352534,6.046792375271038,1.6446515326587172,9.931033305419207,9.085182603926231,6.621013337110499,6.144079785700992,2.6345731798679,12.115661097242253,5.182492726198869
14.83842578290137,8.032431057020524,5.222329311582627,-3.0149614074326028,-8.86491717120774,23.297441781634134,12.717381307408145,9.956088186839398,6.324348600364506,-1.2193821959440116,-4.803227245245102,24.94837521408031,16.526845023739032,12.977482359848153,5.877072254404799,4.926916600814157,-6.733623091489026,-6.801116190551925,27.160936090904496,22.5335191885747,10.373091825713686,-5.275909320402693,-5.82900273023522,16.667780030725044,12.757360506441414,11.37997133884354,4.281723227116013,0.6539573235722305,-4.454079291907497,-8.575877156402417,12.922198463412427,12.43301150921098,13.143805303409431,4.683115817564394,2.136489806469438,0.33083426282345085,-9.499164664276474,-0.24511194133653635,15.70670927856446,8.227414852261745,8.12123714941533,2.899244333663147,11.981119715388743,10.033544514722358,10.663503988425228,4.433138425765508,8.279685289344126,3.1191813079124593,11.397904018375783,10.791980311737838,8.2964259997587,7.710730018536584,4.15279632240677,13.83932307442406,6.980894544282697
16.52245248960856,9.286697218097316,6.759616291146067,-1.1322091722603798,-7.503396073491163,24.536168286424264,14.309236166319938,11.352455608443108,8.155255434658283,0.34704632953059456,-3.002704835704397,26.423476270363782,18.091134836731907,14.550912584414199,7.399070658118391,6.636364413713086,-4.91328660661436,-5.747294448658385,26.979744867383285,24.467025673729882,12.5399738633038,-4.078127892579591,-4.744022046971739,17.44506542454661,14.938298820705041,13.208620786868398,6.539523834708335,2.696421439330292,-2.8715715320585105,-7.32916547508427,13.100263279558044,13.265563074406685,15.02616493442005,6.637991890426461,4.171546684413993,2.247130547545337,-10.869869477476083,-0.3188044787747648,16.390939497954726,10.054633024668867,9.732946502730924,5.168700955483834,13.527020180276125,11.825118452544928,12.260124676217503,6.3906525515895005,10.08497200263507,4.151696609645516,12.796559020663478,12.227003559739263,9.778436610866224,9.007874777028796,5.467250280479874,15.325537132452089,8.601623653151321
17.416024557562004,9.661409213045221,7.221813693693228,-0.16592717610659768,-7.3387652885098555,25.644281538002097,14.979510204209538,11.803331036185583,9.064983799950323,1.2199285116872067,-1.771121573772242,27.528604637865552,18.794094924816353,15.133506454497804,8.095364251359044,7.51095224008228,-3.26205360286448,-4.731914742502413,26.85165738571286,26.011216369270763,14.109964850297533,-2.6947580672145257,-3.7419478295375006,18.342154822229592,16.792134656401764,14.771066976504216,8.37521383283165,4.594302896873339,-1.2483645163005903,-5.915164450687001,13.524593296003731,14.083450549923505,16.594006329229277,8.40512325697034,6.359517340194042,3.792149883763518,-12.464330051471176,-0.17743889988786687,16.89229392677231,11.792600246537287,11.249259563981957,7.409947294066614,14.540488296281023,12.9840095627386,13.172426339235694,7.92111954004001,11.212206372772286,4.654115744163521,13.71620160312016,13.002719035328635,10.738352900901123,9.876143883468135,6.42348697414076,16.195797307348393,9.683613707382872
17.35250013829858,9.086478917558939,6.497440933920984,-0.32398859032630334,-8.37827081526137,26.29251359003066,14.485939117531357,11.146287265233934,8.865053360173551,1.1874027409437167,-1.2927202355778302,27.97646180127615,18.401636185962722,14.490869265683312,7.8455581292291585,7.350389420443716,-2.0627407644529434,-3.9085811609516674,26.71920885932902,26.605471525008824,14.705953816259537,-1.3292884263943812,-2.970315980713802,19.036765301945625,17.836648358733996,15.703934625816597,9.457895924809415,6.016899208067338,0.21115934473226616,-4.5987592582515315,14.248896958471365,14.539014280870582,17.456548416875574,9.617332806768419,8.291588233819432,4.785890692233748,-13.891293806037094,0.40367070556162243,17.02674910439282,12.981681596192459,12.276093662597598,9.179734777122347,14.726857126946658,13.216549492162141,13.245259567339636,8.790761749654438,11.55998491063134,4.657769784049032,13.84458114357882,12.881376586459506,10.970783472142902,10.216328989114036,6.896249641363569,16.218108866639003,10.004403759191494
16.394552486016288,7.707563904529276,4.75058059025671,-1.5624356963238046,-10.296329873915678,26.24791572766349,12.884275845472047,9.487819907960759,7.619510005589981,0.2314634685613397,-1.5939295666298126,27.61945186789413,16.972872539565685,12.705244138859914,6.739848658633194,6.19076370239672,-1.5271471487922135,-3.40834569628703,26.516144400801874,25.96452459596638,14.173436204402655,-0.24469079296459384,-2.544074717715495,19.254158771126054,17.815780501744186,15.764483263697432,9.614304957331635,6.714000437816017,1.2810566626808395,-3.63667911967298,15.273013028372347,14.35533338083481,17.380284801005253,10.030575852281114,9.599778572660117,5.173551289828298,-15.113652493106667,1.5105947019956352,16.709725438236926,13.292295480893461,12.539392776974163,10.17796413767386,14.018299974371512,12.473533697670735,12.522189041360038,8.90107442267335,11.20268164086912,4.301217773267965,13.073209801710425,11.852647945581186,10.455203936398823,10.021649918350608,6.827457580863863,15.394417023094029,9.560416111413868
14.80789551648122,5.8500896975224626,2.3920643744308236,-3.567632433799359,-12.514462037813121,25.424819275838722,10.529751806130346,7.191001105128282,5.6474774711284725,-1.4370600232642348,-2.5183558797218693,26.47173867178217,14.85534464384775,10.173572657267048,5.065570569730142,4.314664765714203,-1.7215215479897417,-3.311333083856885,26.200252829830806,24.16350464825951,12.640186218098492,0.3268916490149145,-2.518544129084858,18.889887711652896,16.785970548615758,14.90420457007244,8.88801660937696,6.596517079783387,1.7846947253796515,-3.171705039087909,16.50184484703542,13.427937617374015,16.356944036420796,9.601119029084357,10.067013838585769,5.031533740271863,-16.306099968318915,3.033045657834215,15.98527974008966,12.620989004041679,11.969618475296391,10.334274045113203,12.595119237990783,10.959697377776418,11.229627081594364,8.307289026346485,10.365478598257088,3.7881325171750304,11.541886014838733,10.145113418971718,9.35517958787853,9.387520334333786,6.2532046496679605,13.970436155008503,8.572681127530707
12.975796781882174,3.9338305561935405,-0.02574578373220504,-5.822456781771335,-14.367494107450309,23.891931426195747,7.9768859300739035,4.782117525087492,3.4425695495532027,-3.4201552665054367,-3.760308403680093,24.685634372378193,12.58489661128695,7.500151823234404,3.233431235298867,2.1841425331909052,-2.5247801195940447,-3.615471366564113,25.780376986286317,21.604281670228133,10.489687464437448,0.2798766036832312,-2.8629117033805462,18.078773923597836,15.095995745317522,13.287674155794509,7.536440474345953,5.771560740465629,1.6681890077108505,-3.1603689422486223,17.736947390514118,11.876896342690351,14.605929946380497,8.498114199036975,9.680745544637016,4.5331788499458225,-17.48982250648636,4.673081257981368,15.01679658358576,11.119944916132763,10.723604117989373,9.819699170767796,10.829049502349804,9.064612765990603,9.710783618463024,7.1983841670144155,9.356040879254774,3.3213565070974114,9.601558604743166,8.168707261024455,7.968583943048255,8.500407069264657,5.312031023201007,12.369445481334775,7.417304328966828
11.287003537643102,2.3662325427371327,-1.9530243861029817,-7.739034465602012,-15.296041254223876,21.857258452245375,5.8214331417077805,2.8097418176066027,1.5428184153654074,-5.234397282111751,-4.942039236674548,22.517530332595875,10.733522780177264,5.32805795507389,1.673537760545952,0.3207795813047314,-3.6529739185795798,-4.22427801276555,25.326156914465106,18.881089358976595,8.252270601185455,-0.32707199655694197,-3.460195351218519,17.174429374218935,13.269774700855125,11.247113805411011,5.961036588235006,4.511886019321706,1.0271757265582053,-3.4024995207169813,18.721339167865516,10.0195700812402,12.516010687943778,7.056301487278082,8.632304560998993,3.8941915716449116,-18.75209856081342,5.998301138724557,14.036191514003294,9.149774922153386,9.131727145655445,8.977804345227652,9.171966319556049,7.244734283452129,8.337094758124836,5.84994676767484,8.476276507107883,3.04549592021057,7.720175447816052,6.405805561928704,6.644692014538901,7.601578166424616,4.229572069927864,11.065714582281409,6.506703847554754
10.0340968335659,1.4449315480566076,-2.9824283883520053,-8.822421224598436,-15.012061159950125,19.62504360822626,4.5300822848219084,1.6957597499209376,0.3800553760356822,-6.447004064706182,-5.717803173380384,20.280637008296118,9.742323074449523,4.157581801161173,0.7233426008612094,-0.8363964334707701,-4.739068971927228,-4.95642870427343,24.950680519992243,16.592622036291733,6.459126886446202,-1.2880438406685961,-4.121970625258817,16.649091791828344,11.845403422723495,9.196511999507845,4.600044301004077,3.180834093613795,0.08234480196786365,-3.628274205626564,19.23165042264681,8.28260079974811,10.546481455889092,5.678826023690567,7.248158206067252,3.309434114255423,-19.925330068023936,6.592564579165422,13.278194291068349,7.181742039485776,7.603200915179939,8.204376596443025,8.025070575850105,5.8918286456209294,7.406962422151919,4.5592337958558655,7.941316655892833,3.0105244362933545,6.349820424637071,5.282227509778514,5.6923202765827945,6.9358765044939865,3.2688452841426536,10.444465182417481,6.161345176335552
9.356334305401289,1.2981294468874252,-2.948632428014598,-8.81020934267404,-13.583050869911549,17.54406932513067,4.318458073299205,1.6267705459671857,0.16445067357379362,-6.79872309051314,-5.873208564586209,18.296714303930383,9.806314958467432,4.2160478656830875,0.5488821678340381,-1.0468377914441218,-5.439579800407312,-5.585525360264915,24.77349952495232,15.18815346124548,5.499072812389872,-2.3200828386205608,-4.6317604329349455,16.934889738047442,11.214759474038921,7.527325355117656,3.809998211644307,2.1261036739022767,-0.8847561572617337,-3.6187929282768376,19.1633128243559,7.080793602144374,9.108343358146923,4.723759883535434,5.889405440990512,2.9018230181002207,-20.663294125399954,6.208376704770355,12.914991099214124,5.672748335644986,6.511825181034427,7.8232203862178356,7.633120763692669,5.238777838175331,7.083521416761885,3.5863540099980002,7.834728586794857,3.1706655637272805,5.8034830186864115,5.06064244775975,5.316265834489219,6.699165932313498,2.6749468326672683,10.695953956125487,6.519508054536028
9.22873837387067,1.868286909012169,-1.9581096859875586,-7.742068443112817,-11.401777227338787,15.956325599803293,5.113482406518406,2.5201923981222967,0.843195051690107,-6.2715594746946985,-5.383651161966608,16.85697962221623,10.840674016676086,5.415497326933124,1.1168708590356724,-0.3247100554154043,-5.54073419925118,-5.900893876093063,24.881059900847482,14.881602155694292,5.529855839805708,-3.172881081630596,-4.807519986445416,18.264881852074442,11.520123861894518,6.521379270255124,3.7775102938256864,1.584166616953512,-1.6245141639263068,-3.3243053085754823,18.583197339487192,6.698497615849664,8.478386960817966,4.416173122132809,4.858814084093236,2.7039017875824602,-20.43928427768226,4.858185294391899,13.011529334136757,4.951604381913614,6.100316821202013,7.996215849615128,8.033317338724206,5.323242159356742,7.3766499348446875,3.1072157214096108,8.107852480151308,3.416978526628744,6.180386624268801,5.781204617294612,5.581706619964567,6.986815227843923,2.6145806160780194,11.766716193844328,7.503721365648373
9.492764059925388,2.9400835632404734,-0.347233725191856,-5.940281440831409,-9.061390518733976,15.13012612033893,6.594071169252555,4.063155006352036,2.127074486952517,-5.085775245661108,-4.425509332194032,16.170265144520545,12.52256537292758,7.395879146469772,2.2125310259930204,1.0751587290433848,-5.024514112040944,-5.775829446757454,25.287593455656946,15.633382055257881,6.457645106587189,-3.7163753285355448,-4.561027758110536,20.567173907920015,12.63644724744667,6.300826652831179,4.486877198541146,1.6260238090644403,-2.0003630830570955,-2.9028878143311285,17.723221722715266,7.2151150099200505,8.751448405772104,4.799699937010095,4.320623557679802,2.6648968558003125,-18.79266959841136,2.84006899632446,13.51891062765841,5.151619433929141,6.437455397873744,8.690423920079935,9.057240982488679,6.0010237684936705,8.148615252286607,3.181060594154992,8.610357105804702,3.6169432176003458,7.347449192424972,7.259021440146653,6.412670204973219,7.768017950882637,3.1217832450678533,13.393213150288634,8.854493202707722
9.930062027301183,4.215087043800163,1.430149639237385,-3.8977964064784523,-7.167697209218313,15.208182954457381,8.311091086456612,5.820022868984341,3.593805024779752,-3.618158568496665,-3.317374744515953,16.324239709367486,14.411897210102751,9.650298748939928,3.515645911137864,2.7486963780704174,-4.074593664968841,-5.227555035655113,25.90736070316113,17.20917996013185,7.9800604944747375,-3.9859199867639497,-3.947926964138154,23.44169488840264,14.22976327872014,6.8124830250252435,5.736944721584637,2.1434712148240624,-2.03300526447779,-2.679207373796677,16.888867143271227,8.48292462023189,9.822703451885955,5.740201612587883,4.275052294269525,2.6775561489862114,-16.03357581854608,0.6413848081048252,14.29178854738312,6.1919205971534845,7.4129923675080205,9.710497770126372,10.39753204975608,7.014717854681233,9.172474827991723,3.7503598280534667,9.151869581965347,3.663772383609231,8.996448765028129,9.145376771377702,7.630666820040135,8.897146836905538,4.091359083191444,15.199736118795467,10.22839276996411
10.332963599907067,5.391741674702312,2.938977533429231,-2.1189320798101257,-6.15807851831726,16.169425410929392,9.82851544785872,7.364753224282334,4.824963330008683,-2.276056487903152,-2.41385639904507,17.260594535312414,16.085492588780223,11.674116641288363,4.695904971015854,4.269135441305136,-3.009614936743926,-4.4227719110023695,26.565353321810047,19.2775610573227,9.691250359721874,-4.153476131580174,-3.1655580339200595,26.247862196070955,15.877544606104768,7.864224439771337,7.214875846098833,2.8993537993936958,-1.8811404762056796,-3.013120686750357,16.342482615919685,10.177353310751078,11.43327118275082,6.983123288427153,4.590023874915094,2.6210223079753505,-12.7088255528172,-1.2189565884372948,15.136362900867562,7.82106636644708,8.78395452804041,10.782678479153224,11.705468310558892,8.079816128462294,10.201937777460847,4.656909717964423,9.566111787845564,3.513072451148018,10.74318509863191,11.025387666934456,9.00090974764881,10.145626029137507,5.30221046458076,16.8092724202635,11.304827150303737
10.551625363810917,6.228663001627129,3.87068212816299,-0.972740302261851,-6.190653063097751,17.810941551885477,10.832625441672345,8.386850863640863,5.520221121155225,-1.376551574214667,-2.0000282004041576,18.761913460586097,17.236900623589197,13.084311783294945,5.491478871046341,5.3027722909963915,-2.1708057886484973,-3.6315295433901027,27.03657540917509,21.486534005715697,11.193367548153741,-4.4290819729749025,-2.4945753460525273,28.268800689617212,17.19365536453455,9.185331430612571,8.591483644099283,3.6097057957628085,-1.7685086243107797,-4.122129381269145,16.19840817014988,11.896565432884287,13.238212037705336,8.230429375664945,5.056609063954106,2.3996755477826386,-9.49887986739817,-2.350721606992548,15.866256840138949,9.694560935261016,10.249071617316057,11.64725151783114,12.68067625537773,8.95282652898219,11.021961530173607,5.671707818511754,9.751741542786547,3.1909502350929144,12.233902183271125,12.521412153482993,10.277659445743792,11.249803729953353,6.473040702438871,17.941223129687984,11.868590985165252
10.517016902311196,6.587275399513998,4.107879556686839,-0.6026440637075137,-7.132743304253723,19.77433562917086,11.189118512991497,8.7499677804722,5.565178126914508,-1.0679794925258195,-2.205906307131035,20.478847906574877,17.728533972407813,13.687458839670185,5.763805256308069,5.688398093780855,-1.811408275773747,-3.142928618825342,27.10904021007136,23.51003193396049,12.182088113457137,-4.955514300654439,-2.212485853224332,28.906092376690072,17.918034042287097,10.485922082510083,9.603585441957494,4.02368190405422,-1.893083236586996,-5.949159592604083,16.36512343863341,13.268388426472892,14.87571508499731,9.214177661850782,5.453501988330114,1.9639217592728229,-7.383008522210854,-2.616536897286717,16.345265850627555,11.456913230967096,11.513982792290475,12.126484743769524,13.142785825827367,9.474137987738107,11.491444691347317,6.5473780950378035,9.688600039788014,2.782263495359755,13.233558658085359,13.38017917788599,11.249005697641422,11.976847190874484,7.345027258645027,18.469273234962554,11.862169899587279
10.225404812913485,6.433680786742385,3.7179347626455765,-0.9231220116112109,-8.648821032153176,21.605606757845976,10.927227828752663,8.485716285242617,5.027526524390876,-1.3174824856870808,-2.976637156232722,21.991363076089687,17.574248948113407,13.47550662809771,5.507633286671376,5.451549713815557,-2.020282456147104,-3.1630050589750147,26.652487471698866,25.070372550111493,12.4985885219741,-5.725274901748225,-2.4952325096626415,27.85284582831405,17.95836902213852,11.514890507270195,10.108531413240593,3.991340312751584,-2.345539335365082,-8.114787309248761,16.583496124510326,14.041554768499635,16.043860019993897,9.749475458156144,5.602374569860082,1.3162684924756776,-6.735876625253706,-2.1559083468654894,16.511712361899363,12.821784322917786,12.350418634619034,12.157564940335144,13.056169576387536,9.574876105422987,11.551349691365871,7.066566587635167,9.421974797201237,2.3978728220846626,13.658454133490851,13.514038661103303,11.764115593859149,12.181548789724484,7.750734871426857,18.41631964538601,11.380056839156055
9.713683382169954,5.816886797179783,2.888234845195811,-1.689292281062924,-10.334314217254121,22.855141157051847,10.183304711013047,7.739672904369512,4.098478773056589,-1.9564590965415194,-4.102425373288643,22.89911127512827,16.881293037060733,12.574238894405086,4.823641974357355,4.762448000214509,-2.7081219757286057,-3.7389404792365375,25.65735494970458,25.94062678635587,12.128039324092015,-6.55749599251752,-3.343856442180182,25.173918204959513,17.367580214951225,12.091555699084562,10.089303286116165,3.4853716232152134,-3.073381563850816,-9.991706971806346,16.540408270410598,14.123264533722434,16.548116896524395,9.751672339380976,5.401970121827887,0.5091083207986373,-7.4365210546407745,-1.3176416443352332,16.36874677948316,13.612954349667358,12.626380038747886,11.779977973319975,12.515018466597237,9.265467637125337,11.21663905518204,7.085933797219829,9.034414282550493,2.14049123638991,13.564734540091965,12.996394512888065,11.750869505192517,11.835534905323716,7.664374128800093,17.904690980257733,10.616925064791232
9.034481368985764,4.836180877027391,1.8410100202358919,-2.6119036207315265,-11.854896876102384,23.19184107913172,9.12722485627703,6.699435760389899,3.0105201774472308,-2.76630121481577,-5.292863915230381,22.92223839312351,15.784499311221019,11.175975506609536,3.870901914394108,3.8586595498615113,-3.6523320291533032,-4.727552752926195,24.247742374024764,25.95772276642199,11.166327581565707,-7.155731203588211,-4.567110517271323,21.289945075118315,16.287355462430767,12.122740861610936,9.628583438657904,2.5858589164304764,-3.899073651884894,-10.886949759342349,16.01632537253029,13.57954086564471,16.329542380632127,9.230731523186808,4.834563166916659,-0.3696683358540329,-9.103908594248889,-0.5216999092447265,15.966180438775607,13.776098881048274,12.313312089809068,11.09405800919842,11.699836308105088,8.612989906711409,10.560634318173312,6.575020104435865,8.61393638625831,2.07665248025147,13.10015670469734,12.022707754453748,11.228900104174729,11.04087766878667,7.207506517188545,17.0951386653888,9.80603213751387
8.235681862156946,3.6072674048521796,0.7492621574865908,-3.4704728675151184,-13.042464969590931,22.490230123331575,7.899585177417846,5.527164024098016,1.9559694092569098,-3.565226082162874,-6.277843534878345,21.977221071736565,14.396309199429137,9.474833994408678,2.8133859183232106,2.9559803049374205,-4.5848449540133664,-5.839201262532873,22.653135966364278,25.062774121281052,9.779738426878232,-7.220148142832166,-5.831275240855795,16.870880196018458,14.890433422443609,11.607064297013395,8.86218087446562,1.4396274063937131,-4.586078108984378,-10.272380371249158,14.998063260976554,12.594465554425051,15.466206974473439,8.269623526995517,3.954373118706922,-1.2170284803020741,-10.861177662486522,-0.10583166806091437,15.374520072425032,13.370985958621866,11.480379124636555,10.219823677621179,10.81087256089166,7.712618684843804,9.682314108302156,5.621355223120728,8.225437992507327,2.2201162144974353,12.431369144642796,10.840730773275673,10.301846673925404,10.003151774314919,6.603204322024554,16.128532057880516,9.15293685142457
7.366623448817977,2.2477086585947132,-0.3050419213538689,-4.168591686494198,-13.896258490494748,20.881188573992503,6.599215338620088,4.329185135629632,1.0473897688740061,-4.251557946792947,-6.881006933041256,20.21507057451829,12.801625210206826,7.641647465278048,1.7888400168698384,2.194373905989864,-5.289404135854372,-6.738710615560473,21.13986451142271,23.344431781625673,8.160998845521409,-6.574782584382486,-6.763223678547475,12.661382986471862,13.332606680685771,10.620486741902091,7.926691007619786,0.20514787288791503,-4.930085053567446,-7.988310483537257,13.701354164676664,11.39286656881309,14.136363435830797,6.993341059566044,2.8666587626639597,-1.9312756333617433,-11.855398443676687,-0.2263829371529864,14.65169301964014,12.5300949722461,10.266195741463894,9.264040459760286,10.020718878692268,6.679878449208985,8.692886666138184,4.4128623159925855,7.912953999936621,2.5433688759583135,11.695438318875086,9.683081104295777,9.140257561509463,8.969993990175109,6.11100628608791,15.095378678285673,8.789954971560526
6.488433629080828,0.8719521597171314,-1.3217491952303533,-4.730302572664792,-14.517053008951958,18.72942060102238,5.300048362956959,3.1649621073875585,0.3243011553330293,-4.803183560682901,-7.048143976051502,17.99488680720207,11.086014509013037,5.833462074560407,0.8979564417035286,1.6245892703001568,-5.658764140684692,-7.145168260330626,19.942230679180838,21.065461915137295,6.501612408795196,-5.243428568685342,-7.061115963966372,9.309123690547006,11.739817464150436,9.308725993774377,6.937009840165567,-0.9783855237009096,-4.824364623465943,-4.327847560079647,12.507774795202858,10.192840181486961,12.581758035016156,5.5520706769927965,1.703991704359236,-2.4262418080854196,-11.549065249666238,-0.8183822367352951,13.841576944380494,11.423988412689056,8.85690529820067,8.315189390390886,9.44853017443393,5.647600794657368,7.71069653023673,3.2040034967182716,7.712414868693746,2.998933520451745,10.980521746673753,8.723631703914073,7.959890116177705,8.177061446369748,5.949721093312846,14.048513129313642,8.769642730303035
5.671677005646273,-0.41250440414273815,-2.3441055712835634,-5.250739228573819,-15.019153332675447,16.52513529787336,4.074790193320556,2.0687533821810034,-0.22121750925366523,-5.247936065686933,-6.841999719054366,15.779061518727453,9.363748711156124,4.197390509449663,0.19950288941585104,1.2199297817214374,-5.7039765841286005,-6.921988910929729,19.202980658752242,18.65144517120551,4.980598460898661,-3.450324125407789,-6.5842498022717555,7.228762016271519,10.223601155108904,7.871632598503266,5.983699682180026,-2.0043980465682676,-4.284477642735155,0.020123706753621073,11.816443461320167,9.172512250291643,11.057394079992855,4.113972540279251,0.6122998047209727,-2.6409256906618324,-10.081104355361969,-1.6379570606459604,12.98426097806445,10.235767694644135,7.463539984139238,7.458068483672092,9.142369795152344,4.749009076188035,6.844992577120612,2.2536923104319864,7.654707400150168,3.5356884358009077,10.321307196495015,8.049828728701755,6.977203150385637,7.790972456973638,6.228928544179443,13.032001612960292,9.07319614904332
4.989620174577105,-1.5083636981328157,-3.4047468131767644,-5.818582914509763,-15.451932445822063,14.743049547422103,3.014564235512884,1.0760971018038488,-0.60962671159833,-5.616526798838373,-6.3986150502009895,14.002042132596223,7.790409315275158,2.871653191727013,-0.2820478570200562,0.9181038687496796,-5.525537444653192,-6.124436308865638,18.934587005846844,16.608272561175987,3.7497021605054774,-1.5599911049777795,-5.399288896417825,6.531232157185814,8.89216353457022,6.528661182975097,5.136849692895636,-2.8048482331388787,-3.4361854328899533,4.147563953048754,11.850897981530965,8.444047143102612,9.7680535515328,2.8481066811864992,-0.26837031539776746,-2.5512392073523107,-8.20840376374947,-2.3734183740109573,12.11932476805027,9.12728693032407,6.281111172920212,6.780151871435104,9.09073621529765,4.106755648768601,6.193378924257891,1.7638649284795327,7.7756963636653,4.1177034126387095,9.726102908383274,7.6679456350406126,6.368089138182682,7.868925828383631,6.923328023246571,12.110083163951353,9.631439154149191
4.500140865690171,-2.3387602008725965,-4.485615330105581,-6.457612324920772,-15.772369875055944,13.704670492009484,2.220797451432979,0.23869220127081103,-0.8502561849577601,-5.909412732056073,-5.869909190468103,12.950540483686915,6.544349749510979,1.9736591531749816,-0.5493288942393368,0.6618303287450624,-5.2553487818299125,-4.9721214123384545,19.033459034566256,15.386499178603444,2.917478147025668,0.038651472806037646,-3.755170539361866,7.047967520590026,7.8560539213400915,5.484124502910885,4.4605374595991325,-3.3382523566041957,-2.4615166572067615,7.18497717279663,12.536795319597903,8.066480018330418,8.839485602833824,1.9071567657540478,-0.8278573372837563,-2.1793704309493935,-6.641063189695512,-2.74666939069951,11.30306371255713,8.22394236772086,5.4621241150468824,6.374971909265804,9.2488515522804,3.817416213708452,5.836485192832093,1.8362136039071202,8.115318033650162,4.733152379731475,9.213981713270256,7.534192377982282,6.2384345299562485,8.355779942627734,7.89263116568036,11.38359485050957,10.351197417734411
4.21592298522866,-2.8675421716040903,-5.513494644278474,-7.116059070432824,-15.877842355736458,13.475782912289997,1.767015020415382,-0.39088633714499554,-0.9497887816796462,-6.09914322318322,-5.382653848925994,12.67471404025147,5.770421966884363,1.5595672552228486,-0.6363291567920575,0.4139113140045838,-4.998939766825263,-3.772328057220411,19.337275981879436,15.23655821542013,2.529618438586936,1.0499044158669442,-2.006808430458185,8.427955446940219,7.214978230918538,4.8864176424981975,4.016449427614296,-3.583820572169264,-1.5380958207389277,8.540357563237954,13.514949409762862,8.057750730134652,8.308453043030555,1.4052993610828168,-1.0078797299355138,-1.594215701228372,-6.1523251990961505,-2.5936411750322668,10.613262847408976,7.60851705436101,5.098056719203405,6.323705571273949,9.558701047996234,3.9251440418404226,5.81895461322671,2.4472077374438927,8.693193443735781,5.383756694839414,8.8302679649864,7.587133196308689,6.59809397863354,9.106308450672135,8.930824139416174,10.978000985094468,11.136091749480432
4.086426058711108,-3.118904953640972,-6.390344730595238,-7.69610554277269,-15.675308995329857,13.854732148340126,1.6526477783452176,-0.7882797522869014,-0.9372427963304473,-6.157910657128892,-5.017112956033463,12.982467057553144,5.516902402804294,1.5863812549861667,-0.6127408455987178,0.15659031718069105,-4.806436432501922,-2.8221226145668523,19.686694498972404,16.099577789776593,2.5495508376368035,1.3406479851386344,-0.5161972270541382,10.264302663336268,7.018468055180186,4.78844379106767,3.8459936713457394,-3.5500160311716815,-0.7974427478197725,8.0464654362367,14.274262416631425,8.39469680705858,8.124412758528733,1.3856876771902678,-0.8257044091615668,-0.9067519535538531,-7.075419895111292,-1.9083297648489523,10.133546956055254,7.315010168257097,5.200612937588146,6.659762056625704,9.968209827552652,4.412355094230641,6.143062852094772,3.4578647156221787,9.488537625378207,6.068029657790014,8.649032514470136,7.782334679323024,7.369083738893243,9.935030124433275,9.83447387697771,11.009081688881416,11.905265669824317
4.009757004749708,-3.1768153426380907,-7.038485378605124,-8.105482875337364,-15.150684678760147,14.45845116328918,1.7803376348896602,-0.9791971454491,-0.8829477571380648,-6.093927277380987,-4.809745158290737,13.523292852457292,5.699675856774124,1.9009674051985783,-0.5789157810657022,-0.1212459491023905,-4.680196177061628,-2.315027268349597,19.977751556893747,17.59183832665553,2.856554051728472,0.9513021790904119,0.44999565691965504,12.211071966792568,7.2313950265909845,5.129259247877784,3.946208409200002,-3.285339961933113,-0.30706669051080837,5.98155213571058,14.35890004798975,9.01945502626849,8.185771972533724,1.8000615521163064,-0.3794845494086907,-0.25134198325131374,-8.999831520273016,-0.8183868397106435,9.938558030039088,7.334971282727898,5.707880468620476,7.345821827881025,10.44247317331256,5.206441443978989,6.769026583032746,4.654049244750539,10.428653228956946,6.763433020592403,8.75748483031508,8.109720737258378,8.416074485630698,10.670838713599696,10.465619093611366,11.539902792831912,12.598076832927735
3.8634068645545945,-3.1700477911194094,-7.439740602957755,-8.311623688752375,-14.404178653561981,14.863763140490232,1.9688031281246285,-1.0458499971996682,-0.9023733442012327,-5.9795278436263475,-4.776531515682821,13.915735372260993,6.108607019583208,2.2655796233708507,-0.6509687812601035,-0.4397744663666847,-4.604784767313756,-2.293632660586231,20.193606427872435,19.10455135536919,3.2674216965356484,0.04224045472936311,0.7781860765389927,14.065190519622421,7.722016640756115,5.743322512164114,4.25141431201749,-2.88675588182649,-0.09005348223739063,2.9372352409255713,13.56631088059852,9.841626613130948,8.382050809086751,2.5081099250112495,0.1661992304340032,0.2428158145380932,-11.484483428557052,0.4705346586328014,10.071593434656474,7.625066588537743,6.507448336713234,8.262704888571296,10.959861452673827,6.192281594607579,7.611074602151355,5.801063701697636,11.382590296488313,7.4069914726908515,9.215566189125017,8.583369467246815,9.575404614042746,11.200222025821919,10.774429601113281,12.54444530087316,13.17434990915616
3.5460627949106787,-3.239989008243268,-7.652994730339103,-8.363633738492716,-13.634027548841242,14.758510524200188,2.000918388722244,-1.1090717538731285,-1.132324163625749,-5.945351775345842,-4.9298356236944905,13.87971435699506,6.463174196180735,2.417727420699901,-0.9333048267233357,-0.8350360083830095,-4.5825403736266175,-2.6686743064584646,20.389867392831878,19.992067176927485,3.5836835913169933,-1.2004679475362785,0.5051021287963513,15.78246249896675,8.281004429663604,6.395622498174364,4.626005277302051,-2.4965006576153126,-0.15909881211910815,-0.39907475279681903,12.053296778630122,10.739040598856677,8.621553915966166,3.298432191456675,0.6138312025571224,0.480210067910972,-13.871738638549527,1.7324673059574724,10.521955293506151,8.113709194840565,7.4615188284274,9.2280155135264,11.498757374952781,7.2341604626469795,8.545887369124339,6.699990220593126,12.182278025430552,7.895812942334192,10.017794060709049,9.218810770231295,10.692949951285332,11.489260416497238,10.789539058785333,13.894392015690634,13.614895558813892
3.0295606780967645,-3.4862754079882174,-7.789684689088105,-8.364502282085672,-13.068148489744193,14.058185570114436,1.7066389424216535,-1.2803962554246384,-1.6743012850649164,-6.131406674877645,-5.275130444718998,13.337409487909465,6.505768639564603,2.153144860269949,-1.4767111153723382,-1.3431386852437823,-4.656821664423649,-3.2712724389582255,20.639960182687325,19.780810954605123,3.6485515541908446,-2.6356082663819613,-0.21588051947837616,17.42698862300742,8.67056510897565,6.83625481402473,4.885435256524156,-2.2785885844355835,-0.5362451777426003,-3.4394613865594934,10.298751621316816,11.567262927895888,8.84771649648488,3.9340728946546073,0.7863125152748971,0.4227676342067537,-15.52518507723688,2.7689376634784475,11.216734183711562,8.70903132757483,8.433658387542616,10.041648311059694,12.030655161057872,8.206861849607115,9.438997273065464,7.231351916959246,12.671259799315859,8.115857507352084,11.081856649693352,10.010630610311045,11.652891971200116,11.572199820359767,10.594757438598922,15.378674910417523,13.913551254025798
2.3841315010652355,-3.9292991394269388,-7.965265738677822,-8.422748019803384,-12.885051882520056,12.936530449159104,1.038546688054197,-1.6108302889881125,-2.537187413741182,-6.624331828970397,-5.799603513543987,12.436829333002557,6.0977675012770804,1.4048325302676545,-2.248565691284205,-1.970536898142572,-4.897721199746012,-3.912160969029889,20.983327486013398,18.333344401792512,3.396687265690196,-4.180458101687474,-1.1699988743035474,19.096609326867863,8.694223168131447,6.869947187914067,4.8534741411385784,-2.368967721548172,-1.2450479256676026,-5.819764050659966,8.929412288592454,12.186768059527841,9.038014673077573,4.217447264963662,0.5805687327561131,0.10322439012187079,-16.32725376165065,3.437281670800535,12.032563479958112,9.30792329047761,9.317757908238947,10.53879074321876,12.51974508348021,9.02023679427494,10.17024088168122,7.37735358086616,12.750976891931337,7.9802740211276575,12.254952540188734,10.91790855442931,12.386808944227566,11.526705527595453,10.289924930061744,16.752369855166346,14.076843080663515
1.761926220848375,-4.496290931745514,-8.246408852881252,-8.599449368577565,-13.158212082771112,11.75191451250932,0.10003690568543178,-2.0613400369780743,-3.6087362397392857,-7.406473721392387,-6.454498818288796,11.484746229829518,5.277092785893145,0.27617622272539677,-3.1272620798265427,-2.6718185641773458,-5.364758017529805,-4.4479893910016575,21.391243843945713,15.908710804951285,2.8824516792691766,-5.789299265709651,-2.1493931176394154,20.83908918240643,8.265582397714297,6.4122611394909095,4.4216350966138105,-2.8230452220857014,-2.279305470570428,-7.437874249136479,8.473652969988542,12.499281562959023,9.189242132738613,4.051030571411342,0.007552767223341306,-0.3757645571561321,-16.452567325529127,3.667582044281559,12.819356637630596,9.811302379617231,10.052112587067812,10.64382937084101,12.922562986903316,9.626472445128297,10.655395189751289,7.217456802093405,12.414026466189807,7.471940488747483,13.341325828811534,11.860852849347577,12.875080906295796,11.443278249327872,9.956745865451806,17.799849165822746,14.126300316613992
1.3534970277819358,-5.035471499204946,-8.613288507880931,-8.876291745818117,-13.838459472096467,10.91072327588465,-0.8791814175496828,-2.5065666115807277,-4.6713028195159145,-8.3403911007807,-7.14624556755636,10.825539116079966,4.245868530142979,-0.9898176730164323,-3.9278083164157698,-3.3471771762110007,-6.066040659585763,-4.817217533652661,21.761379064800934,13.081625882640632,2.2666706416442564,-7.399930925149189,-3.000733787043793,22.59323674602414,7.442711022986413,5.5127567210059185,3.592318655632942,-3.583727307002585,-3.5658696702838455,-8.392447619957554,9.137921707147763,12.472238328165972,9.296829425604757,3.469112433921739,-0.7983758571230908,-0.8625931313855166,-16.498998612872025,3.4726527774256386,13.428003051099797,10.138982158998523,10.615565470646315,10.3966261778422,13.195711450331686,10.015692196898065,10.862111092465144,6.896584493254766,11.754989586929838,6.671850883324007,14.14951946205226,12.732721785385781,13.133104065398026,11.390618133283862,9.648604708709644,18.384775043343105,14.089999964273382
1.3127782167998845,-5.374672136310054,-8.972093777421044,-9.17471067620467,-14.795646444773197,10.71045983581061,-1.6265687471532022,-2.785432358485889,-5.47185942832338,-9.212965958642688,-7.756511979166563,10.70336342320751,3.293588304201598,-2.0949024173348842,-4.464895547175405,-3.87081125547365,-6.927639101709982,-5.035470586198079,21.95505877159069,10.550534085073455,1.7608768096335927,-8.884022091387752,-3.647259231428353,24.186400457669112,6.413710541471145,4.342784816409034,2.4946721283105346,-4.480725665848043,-4.941988138286099,-8.858354026205197,10.706791117254996,12.14512237904628,9.338991021477456,2.6317499227725656,-1.6147896276751723,-1.1966985450681409,-16.959072501388174,2.9537475991376274,13.742410992821323,10.23796287602856,11.019326225040304,9.93360845212962,13.306669480598796,10.202329170513753,10.808389272532047,6.576802272564953,10.94558730275204,5.753175909108464,14.53252418706353,13.423308754377764,13.193915185835344,11.397915233036692,9.396201896119813,18.474085521578395,13.995665686392908
1.6829466260388894,-5.390075873299954,-9.200149716512506,-9.402657714722432,-15.881106171420456,11.215106568337758,-1.9392380787309254,-2.772126488548218,-5.815917328108877,-9.816590718832124,-8.179473249029071,11.15790388678841,2.685558359902555,-2.791095634978525,-4.618910392740573,-4.137386066672806,-7.806811856544915,-5.1773427683112505,21.85303048648751,8.892806495750978,1.5457110314399278,-10.044825047455731,-4.0921549777382245,25.37429454836131,5.434535874657717,3.1421181765767416,1.3507533005194836,-5.276656382491359,-6.175190933776353,-8.97332984070985,12.610312473499716,11.614809445272352,9.275711669410855,1.7740512553169094,-2.2019940450244526,-1.254857916552187,-17.88614269197218,2.291272906687589,13.70007151516904,10.088216114546327,11.286564395169785,9.435799556120509,13.239205920157008,10.209622200299496,10.551164022473122,6.389369563257725,10.186248935485978,4.9475029136994415,14.421603815671434,13.847445975687066,13.098657569457016,11.456128772023133,9.220979051986925,18.137533593615892,13.866191954206254
2.3667240661380857,-5.0617802434655,-9.202846704460654,-9.510650251771047,-16.978003177595777,12.222616993479411,-1.7707895870873873,-2.437581780481737,-5.649611108407604,-10.036954506556608,-8.36441900256525,12.001715396200016,2.5534820601357913,-2.9722015842941154,-4.38771168658037,-4.1096297499711865,-8.537279909122706,-5.34089151669982,21.406921687938077,8.365930062462022,1.6973807294518926,-10.656739058291766,-4.397499082624937,25.920562147276268,4.743382944970653,2.14656230804201,0.40826649058791764,-5.742132129468244,-7.019184685635437,-8.776080334702952,14.137065755404944,11.00160816287023,9.05987480005553,1.1318431119438288,-2.380666569764127,-0.9863187154125899,-19.220786610850677,1.713938209131987,13.302139263460326,9.708162343856642,11.435657765509456,9.063809336987212,12.994795099130094,10.056884166674045,10.166645453525184,6.398569774494634,9.648837587322298,4.485312153721829,13.841030415764909,13.96489466130651,12.888550883989804,11.528960861038009,9.146476969969662,17.516074883226295,13.71399820874597
3.143334130678526,-4.497348758517121,-8.972591521148239,-9.534911800706492,-18.03542892189454,13.330015860999492,-1.2629730030639283,-1.8834618618035153,-5.101672063124741,-9.917701367172082,-8.348492119473862,12.880818126342469,2.8395415291079678,-2.71580942764918,-3.908004160256918,-3.8509466471089437,-8.98872832621058,-5.611659095244006,20.668830106537623,8.831503649064581,2.151440221141601,-10.549913473752735,-4.659639623942314,25.686017768609894,4.481532120761463,1.5224216398532588,-0.13817701068071608,-5.732936622165466,-7.290295111079132,-8.217578754553887,14.714333765185769,10.41014767888002,8.658975634777349,0.8680957979749224,-2.0938573560605604,-0.4315179336641255,-20.42378439376689,1.4474633691104897,12.614129562361564,9.152637023206065,11.47694164793352,8.900597069905636,12.588942552392819,9.754706288916509,9.725740363128418,6.584277666860322,9.428284875242197,4.523916280057213,12.892848535211959,13.782824716473922,12.603505588848586,11.570282334365558,9.19537848364384,16.77169897465832,13.538825759439948
3.7277010392903973,-3.9096924799941783,-8.614044816042131,-9.598646786530965,-19.05934556304845,14.068212600809332,-0.7066387858135936,-1.3258644363005603,-4.459475957069588,-9.663501073947621,-8.260730750364354,13.394163607960131,3.315592169325199,-2.255208374908152,-3.42681462416808,-3.5257317100904,-9.129152205353957,-6.0456800455667885,19.77972124771146,9.811381222607547,2.7148343146201546,-9.69852918293726,-4.982446399687237,24.690411905645114,4.644936880024103,1.3240832629553898,-0.2141511393848874,-5.248545063292472,-6.945922023214518,-7.233416923905535,14.133000598475087,9.897820289926637,8.07550608169459,1.0182357727436693,-1.4339302173869797,0.28237322274928234,-20.962764069776494,1.6425224430194412,11.748716340083732,8.501738035742527,11.410053390889795,8.922564665928807,12.043287135338925,9.307655457060967,9.274071379833467,6.847820242410879,9.515820663132576,5.085145485857669,11.728202419160246,13.347267748704754,12.278270841374388,11.539154354930611,9.36646011122289,16.042196271899847,13.3284883544719
3.862864735184721,-3.554877768284908,-8.316875165004788,-9.869707567331497,-20.068987935737834,14.062256453877453,-0.4374516541184157,-1.030770877693393,-4.080688490689069,-9.576084752798938,-8.28773114171811,13.23387111608329,3.666445537390202,-1.8948176384421052,-3.23103049478791,-3.358204432220261,-9.049723629286412,-6.662205709352881,18.91855835923793,10.675421596882606,3.1268565623864033,-8.268929949138641,-5.446488240157811,23.131193840791724,5.088704222877277,1.4844675399171434,0.10600476087172828,-4.447268329485977,-6.122551362719886,-5.837749443642949,12.629612741377132,9.462136912610317,7.348898475678004,1.4791731932827976,-0.618991094274687,0.9706264522215284,-20.744082580633044,2.3071592870841036,10.841603277867314,7.845192766885346,11.22679716591394,9.009085480464247,11.380845746450664,8.720459016311548,8.821316099602209,7.042406263281844,9.804412050121538,6.030562267010378,10.51056110326847,12.727821364412382,11.939093511874043,11.407487021447821,9.610516886035562,15.413824493780966,13.06622465240686
3.417672177132637,-3.6395311809158786,-8.286867198127787,-10.483587433360134,-21.050216790667687,13.16582983033787,-0.7009827499938002,-1.2185906790266516,-4.2671725290292235,-9.940687841702424,-8.60374048265946,12.30155916243067,3.619266817038967,-1.8897972344604206,-3.547803337522173,-3.5542385944364474,-8.939810338128776,-7.442885606893823,18.238545777579155,10.882292450537863,3.150670583336928,-6.606943890473698,-6.089982656537745,21.346420849563923,5.579677127876529,1.844470510726837,0.6218882391617249,-3.6051835281304765,-5.112683778901726,-4.192880489804878,10.794476195228219,9.057891352028705,6.546451906600408,2.044737406052587,0.07194636244307517,1.4366047872335472,-19.6810486526585,3.2758643434894426,10.023299879561646,7.26380168596168,10.917431769674662,8.984763656723556,10.63061044890075,8.015047776704623,8.351232692889543,7.0198478475101815,10.138081224440981,7.099577905769239,9.390210504703022,12.003080760386942,11.605979705610165,11.161422992816036,9.830252645892774,14.918774116102634,12.741285446577628
2.440331381005368,-4.246171899154139,-8.666567642956984,-11.473374675077446,-21.9380919872882,11.518771845637994,-1.546612379615988,-1.975521048765704,-5.152190842153135,-10.90534302693747,-9.298751352185967,10.749902336675955,3.061973564573637,-2.3428648393412157,-4.46180003914015,-4.225322471947464,-9.019329254330362,-8.330844653979117,17.8215761251853,10.169343270636613,2.6669948035249176,-5.144434079257405,-6.89084090826445,19.745361928011647,5.884985847564751,2.218080260341213,1.0807073022166533,-3.025070728133848,-4.281710266872942,-2.6055063054410006,9.335968251086886,8.635473731596747,5.751926437085002,2.478695140167409,0.38973377204674975,1.530013095344048,-18.053351839956104,4.23978246928489,9.394983117583074,6.817570556635184,10.482157207059156,8.684638236476598,9.837483537853458,7.2428640234329364,7.843841325826833,6.677179097841401,10.373725811084727,7.986847467277839,8.489565577636116,11.25325362727116,11.287311480781549,10.799688035027806,9.898189931698361,14.553103995607959,12.358564389778298
1.145859949858158,-5.300996217953899,-9.475172084234366,-12.742641586738978,-22.637374365820765,9.499833145128598,-2.797909994114965,-3.2123112300813874,-6.644592923937799,-12.407833893191782,-10.333771855947738,8.933466898382378,2.093281579932891,-3.1668585237306583,-5.881586644221298,-5.341903941753674,-9.451112505115777,-9.233384370480593,17.66245420434103,8.644772925487356,1.7313540303870978,-4.270036747451872,-7.761861185009171,18.72013812389478,5.864722034200385,2.4570641771690704,1.264066346702284,-2.935598910398797,-3.949152873520955,-1.454485533080789,8.801240811734878,8.181647911442152,5.047601154566005,2.5981873876582626,0.19917141694251939,1.193206445650136,-16.38849379154838,4.837422836915396,9.014562516644286,6.541388254820273,9.94270420668439,8.018724986052876,9.06786290757231,6.483090251512177,7.293581936621184,5.991129164431413,10.42655118581626,8.432591364237291,7.890090441020548,10.558328300294608,10.977762430052929,10.335664226599548,9.693512868300928,14.30222732214471,11.94866421426314
-0.13867611965905802,-6.581080628579682,-10.583624381922533,-14.077952377046822,-23.060297047357256,7.612060111386075,-4.099529572004455,-4.678181183100368,-8.444341922065568,-14.171366860116851,-11.530866289872131,7.3047607225164795,1.002258683587736,-4.106734650260263,-7.548844103329656,-6.722061678537876,-10.273956403929912,-10.035048833853208,17.68386185581981,6.738284671826198,0.5680939527410933,-4.209531806123515,-8.571969247968298,18.549019595868568,5.522773645375874,2.4932183209186727,1.0564628164173242,-3.417438571390772,-4.282053962197548,-1.0777024609028467,9.358935900951028,7.7430775288193034,4.494956709397192,2.3359570623155386,-0.47733216476489204,0.4820726577109897,-15.181101822225667,4.7746168388214185,8.885556218802364,6.441665568593505,9.340061288419298,7.00576160863376,8.414845466563024,5.840960824878223,6.7288196010887535,5.036347667764275,10.3020745861459,8.312949062058191,7.638813187175113,10.00107672323203,10.667720393152148,9.80894112070448,9.161718418796609,14.167206911279278,11.572680753428006
-1.0687742746393756,-7.777747089238866,-11.743337077044675,-15.20662068145865,-23.172706209463332,6.338866331749447,-5.032346554690948,-6.028969803758899,-10.131157027445717,-15.778166140663995,-12.614348576495422,6.2803670609222975,0.1772563384083421,-4.825634517481239,-9.104612923039888,-8.07462349338758,-11.372514248935957,-10.610861713175646,17.787217948725438,5.028246423383255,-0.4903319611969872,-4.9463654973843205,-9.175661377708852,19.34186906797538,5.010493386158451,2.3579166067356345,0.48361894771677205,-4.368979733578534,-5.230268593018444,-1.6480543589967434,10.737327554759997,7.426045911948283,4.134493935656197,1.768871930550994,-1.4548316001492516,-0.4334673114685468,-14.846285929769078,3.9455367187057897,8.963256936928708,6.5041154479714915,8.73587608466047,5.7756378363144165,7.992339138799436,5.433475490663653,6.218813107866628,3.973541753755202,10.092916162235085,7.68277196560075,7.7524629331014685,9.662275958655457,10.353824266285919,9.292755512807348,8.357500719805595,14.17670045270508,11.314252068560748
-1.3938124509751315,-8.5926988881181,-12.662922092718713,-15.885426902407092,-23.022632716578133,6.004872276163338,-5.262322183720395,-6.933610307389359,-11.297971783338888,-16.805312160569038,-13.297291351039911,6.117668404780118,-0.03519956305763028,-5.029783473622759,-10.195486259401171,-9.086612871506553,-12.499939137383368,-10.848334891960686,17.90879278372082,4.024861780151493,-1.1046502339142927,-6.2253139583551125,-9.452437530174361,21.023990481675074,4.5779245296187625,2.16263963956479,-0.3042025290615791,-5.53463562950353,-6.529730438024984,-3.092163184635659,12.350288637908667,7.367181826950702,3.996478592388519,1.0938182292898149,-2.4353710047499852,-1.3047408241201883,-15.224782102283836,2.5015283285305876,9.17111274842471,6.708092757582925,8.211666190218912,4.539112081843635,7.904846372904102,5.360838094554197,5.855785577224784,3.0058856556725284,9.935060898768267,6.751999075463411,8.209143823208137,9.60011021532985,10.04265890898682,8.882561756632409,7.445054696841147,14.368509843901585,11.255466319900592
-1.0223644866114423,-8.81814846628184,-13.091197298993528,-15.969877869704094,-22.71893729093023,6.702142258951124,-4.64994330045584,-7.171079967194989,-11.6707356564302,-16.960352414649027,-13.366122780716145,6.8595766659969,0.5547015007330769,-4.563818455125373,-10.566243148654472,-9.51045195614865,-13.357061483225461,-10.684329174053872,18.042332769061094,3.982700616275691,-1.0395911572185002,-7.633913496685565,-9.351277152149741,23.34250943251231,4.481885843219093,2.049004257659967,-1.0939438754694302,-6.587227538955894,-7.784772595375788,-5.0884066686049305,13.535768953150715,7.677097080960546,4.098922266243973,0.5584005485218015,-3.1034437121836937,-1.8704810165761994,-16.083408921044207,0.8199965945795085,9.4195045022231,7.029846266096786,7.852857338059889,3.526922024456996,8.22030643613489,5.684483356337466,5.7324843290202026,2.3332738970251357,9.95934153056282,5.818694935037488,8.95267075963169,9.832742064130079,9.754630151374675,8.685075998196668,6.664644725159182,14.764543464322468,11.451513802156214
-0.0334497680033099,-8.386634371370992,-12.885058663110186,-15.445680902391745,-22.374074103150313,8.293437323151943,-3.2895260420030006,-6.688065982635185,-11.179158984160633,-16.171297020106415,-12.739788287524922,8.346074273263206,1.9225918724950555,-3.4569667153142785,-10.122262736557978,-9.230238872684264,-13.686055961282083,-10.12925790968036,18.243846070108752,4.823479588825368,-0.2329011020065943,-8.723446649310848,-8.912534876471486,25.925704235290734,4.9018144759080755,2.1410714790355803,-1.6782171566666109,-7.223576512442275,-8.588937378264173,-7.137413376717165,13.820623165073306,8.39705125655805,4.453288304598468,0.38578009523314316,-3.2082869841891686,-1.921043108390395,-17.15563767591966,-0.6063333541465958,9.642032990360073,7.447657823294793,7.7384977072261885,2.934332618900417,8.946427938048402,6.406575890268137,5.9126682285913805,2.105212337717718,10.244805701056482,5.169419703766792,9.893293627567802,10.320945973061985,9.524577931152683,8.794498382918997,6.256695303147868,15.346537333462225,11.906109192986559
1.3530394705897049,-7.3834295200687245,-12.04858009941497,-14.420887728837366,-22.045659760193374,10.467322545814786,-1.47426350283701,-5.607697113864224,-9.962419702945294,-14.609085927222107,-11.495476074499779,10.270645481066317,3.8323776101499556,-1.9110265291919362,-8.94822272076295,-8.293685861433243,-13.34462377732686,-9.270286684930397,18.607206059137468,6.189692533974551,1.1920642950718259,-9.13072524330104,-8.25735367516739,28.36905795609695,5.8833878224468386,2.506982072304548,-1.9140090590613128,-7.248008792252685,-8.644010549481965,-8.679233595391429,13.112346711261226,9.476293406589885,5.068998804281604,0.7080170812128022,-2.629132901804091,-1.3513072331388076,-17.95888201454262,-1.3317853961709267,9.820117059249847,7.948006242019134,7.925984293100295,2.877259629517742,10.00941683157263,7.453156174926811,6.399721813419266,2.3754355367236974,10.784954356111022,4.980772810115935,10.907511538454898,10.953782752401704,9.38434662246646,9.245016964168443,6.366700910244294,16.03139934980853,12.547255008078483
2.849534053790266,-6.0089864372566355,-10.71932787296716,-13.077133082259303,-21.696215804295722,12.830874355994386,0.4111421860851667,-4.1787756060931445,-8.306269247469313,-12.628979881634926,-9.839690525956257,12.27201088184491,5.918494414818189,-0.22387256086701512,-7.271449100521294,-6.888931982784299,-12.34720299617802,-8.260397048743629,19.2029687891911,7.585237419656094,2.96448289656417,-8.664423670505318,-7.553672818443544,30.310736402984695,7.321031460936426,3.1374530087095005,-1.7567789902441313,-6.620730795735765,-7.844936242877079,-9.236304336196971,11.731042683433852,10.768846529817651,5.933665817725544,1.5251640511185856,-1.410207717602507,-0.19270693965537022,-18.622339926507617,-1.1273512323778156,9.987266389708592,8.518052980940858,8.429350765951378,3.3642155465858097,11.264052469098697,8.679267811750897,7.127113356689172,3.092043100514544,11.494076738893124,5.262800351745097,11.857870416855542,11.564483776415285,9.348572872274367,9.9889092835656,6.98064713542869,16.68166058984765,13.231915140771747
4.189111668595726,-4.510040698588862,-9.117678013644856,-11.607899882528462,-21.19976577237648,15.011510794370782,2.0234642960743647,-2.68879882968226,-6.543504298942493,-10.652731605631384,-8.040744834541071,14.030243807659266,7.804762772137552,1.3145255138749548,-5.391835118253803,-5.280408970011989,-10.855947540490472,-7.2785256233349305,20.031467018317173,8.566281080761684,4.751617676350146,-7.334279550243874,-6.962067377128018,31.49628522827715,8.996577665446424,3.955191922565162,-1.2519936398231466,-5.455533466448012,-6.297752207644145,-8.531919688734778,10.277924710296958,12.070034270218432,6.999441210176228,2.7135564464145845,0.26560064659469873,1.393909924196966,-19.298799867228364,-0.08019501120268213,10.226327419409621,9.142465259157621,9.211685820712086,4.306587203752988,12.529835649157352,9.899651771973998,7.970550160484031,4.116953785362478,12.239980802570877,5.862798467645556,12.621513816730523,11.971805973451577,9.409265978633488,10.896291618552905,7.91178430505235,17.139537507716312,13.774716558883512
5.190995129814064,-3.1124967115667213,-7.484040841079455,-10.170729599488029,-20.4052643263762,16.73166636537705,3.163245031423555,-1.3780665364749192,-4.954407402056794,-9.038976607479935,-6.354153514255758,15.333027602198989,9.206149468488674,2.510359010852092,-3.6013417168085438,-3.7304346908974493,-9.122807050705653,-6.471140769973619,21.01205634185087,8.896468633773962,6.25861987835806,-5.3175903095543084,-6.572814441474528,31.834835737492096,10.65540282693429,4.849965177166436,-0.4906153842403058,-3.9683098301126893,-4.272948737247752,-6.547673009016979,9.391576332608192,13.174357962711078,8.182471299975946,4.071883365192468,2.133289883709079,3.159032725896313,-19.911844856536202,1.418509670351007,10.643332403277832,9.805556105237233,10.188101943523,5.548145130547841,13.640766443920562,10.93388092212467,8.782198078978745,5.2604649902614735,12.888253614499313,6.527645519928184,13.12372700923585,12.03735966238932,9.532132974867363,11.768243382905862,8.851028477499453,17.26626638357279,13.989525845545288
5.786648503063021,-1.97735974549719,-6.021545719576025,-8.870846324206434,-19.223383376291576,17.84189753686055,3.81127300403379,-0.383043238204551,-3.702569373306317,-7.991337521279543,-4.963804849171,16.09999551919897,9.994572448630272,3.309121173805827,-2.121192397944035,-2.4320611215943257,-7.411575687801228,-5.906460518575422,22.011669673621352,8.600424829321677,7.30695309992936,-2.8861934160185037,-6.368953662029646,31.435252300431152,12.087688501842427,5.721668228803144,0.44101599780575773,-2.3991218814386723,-2.1112533601511245,-3.520238078487308,9.507771490966023,13.933901667984522,9.371410058362423,5.386454055492539,3.917050930286077,4.830729351904703,-20.691594721687817,2.8113005929044657,11.331574467730526,10.493346109045493,11.24293563772084,6.906125598360806,14.490648327621326,11.65080877919895,9.432105276933308,6.3331881034420405,13.346461925336811,6.996031317609379,13.36330599718679,11.720338475102201,9.670326724230474,12.392719565844779,9.466402483511171,16.994925767025578,13.749082500007383
6.007441201287174,-1.1847134049779777,-4.864633606569207,-7.7747308073927766,-17.70303116367595,18.320707834729806,4.096231940949414,0.2773706454498841,-2.824346011967857,-7.528643773524567,-3.9581527725684644,16.372382310176743,10.204088464660096,3.7834614148751635,-1.0732309149647543,-1.4761343225754073,-5.9323690091221515,-5.554948067870976,22.89398649660812,7.928413698740336,7.866970576059326,-0.33283761570015,-6.231306080502743,30.575616579787972,13.185047943613942,6.50870743888599,1.4894064062532464,-0.9446380836962334,-0.11948236926594547,0.11849783473494857,10.713714720566417,14.294671445981031,10.452407102044328,6.492595754675502,5.399734476249293,6.1839499150543915,-21.649429283683883,3.572974444637528,12.334413261830143,11.200290619455924,12.256671421929113,8.216108290944694,15.059800808018181,12.008006890043816,9.844596828246187,7.195201062036963,13.589480834717634,7.0949306187031365,13.416762054633361,11.107358497325057,9.78869256917216,12.618883496116228,9.520811234219588,16.365703837509542,13.036084479184087
5.94655320471297,-0.738730769031501,-4.071153678624409,-6.928724149427131,-16.053739369538025,18.253521927899264,4.215399865108061,0.6778594039749839,-2.2578195365967018,-7.514044689702172,-3.336724912969691,16.28231588795939,9.98673086084746,4.077977970821629,-0.4779932330263774,-0.8505373511493479,-4.80647830179819,-5.3050186616251285,23.563962713754957,7.236005915268084,8.03971373053539,2.0784165089146462,-5.981044336030391,29.629449414138225,13.95448793565667,7.196708540880451,2.637408727982384,0.2801339679867656,1.4992197412774502,3.8228729080951735,12.730324432046794,14.299970073205072,11.338918422392663,7.31182202911093,6.465295624277985,7.091159461892475,-22.71064779186032,3.3825466588980717,13.612575677431726,11.931326391478457,13.13538301325829,9.358508518208078,15.41904402295302,12.072430603470675,10.027047584665254,7.785823998818694,13.66225418139286,6.8021537104995,13.424485671709363,10.408576427155324,9.884886489884664,12.412510679734886,8.96649836760423,15.526149835827411,11.962839604519171
5.7158855029441344,-0.5937538079295441,-3.633052555262438,-6.371251757179115,-14.588200724922839,17.802215416569997,4.340620953127927,0.9339863344583117,-1.897375552198997,-7.729377117712734,-3.0398528193338548,16.014877208549976,9.547621003136715,4.3377153495570155,-0.27564773229179007,-0.469609358264786,-4.063942995632278,-5.01105720666307,24.001996541923194,6.837789111179003,8.005577033656948,4.137220552098224,-5.451702312169959,28.98162560928837,14.496371109858845,7.815118555535149,3.8865932621298973,1.2500595625627593,2.6759377077981448,7.0339571697197405,15.041986146638825,14.074389877079788,12.00012228254609,7.861616033911902,7.113988311349507,7.547528220464105,-23.723343254258435,2.252327002998709,15.044085588485924,12.702106014840759,13.839485973096602,10.277231314940952,15.696407415806224,12.004142506400846,10.06673431073947,8.129953713344324,13.656310819296106,6.246271624890404,13.551506312303957,9.904924429181925,9.998230962634953,11.873434551833228,7.970113441377272,14.698831426326382,10.753666315977384
5.41356555546092,-0.6834774345727697,-3.4978013559086207,-6.130350812320074,-13.619608542669422,17.168504033481653,4.5502013987176895,1.1487170762449486,-1.6499644357151082,-7.963405891478723,-2.9877384637496593,15.767736327368475,9.07580978519173,4.646462158028177,-0.3623340747672037,-0.22399613795223328,-3.6668654670517675,-4.55375604432354,24.261684885316257,6.904677616336986,7.951889082883185,5.691209404666846,-4.5608315325348405,28.91323001412349,14.950136556005386,8.41753011225623,5.2217616932413975,2.008278415387501,3.45761432956904,9.280648179420865,17.106846152843836,13.78321777445974,12.475506107514116,8.230622623591822,7.440614451406336,7.654348405304296,-24.487916649881196,0.5408291529744207,16.44842605463479,13.53243633147433,14.390259353312757,10.978703562281025,16.020394405248563,12.00603668498336,10.098048338633994,8.31707986988657,13.66659427449557,5.650759436907064,13.931327770356257,9.860580418411605,10.200197286330264,11.210965568026996,6.858712321069154,14.119402358709776,9.69039593899356
5.10870818222349,-0.9315921950672612,-3.582659473706702,-6.197197680323214,-13.340905852114908,16.558083044221846,4.812852997850436,1.3818891363909058,-1.4623194855004895,-8.072038930065368,-3.1034176806570164,15.712806634475207,8.70325845327098,5.000636928977659,-0.619951361855672,-0.021163199850597003,-3.5455555529576053,-3.8914883301327605,24.428573751939386,7.4231068775235745,8.01101918575619,6.632078160807206,-3.3531049801345594,29.506911785378684,15.424871700935798,9.048638865146064,6.5769543619991495,2.618898992582304,3.943308958616285,10.233061585348938,18.53303507261861,13.580860991254303,12.856951561073945,8.530252019814975,7.588537611610283,7.571639146817233,-25.17892527799206,-1.181268246880538,17.624322385418587,14.42843643258054,14.852491648091602,11.508172830793013,16.46788023212568,12.258869542539191,10.25953098206997,8.461829768746593,13.752411774746008,5.247077415969171,14.61985948071336,10.434393271769732,10.56817628094613,10.67786289359135,6.006138746285924,13.967100497997388,9.032377458976828
4.852374983643645,-1.2522134656357258,-3.7791670935697077,-6.492208188785668,-13.725532503142901,16.15402425346393,5.02895330416931,1.6472518162572873,-1.3150232739445533,-7.991985033245716,-3.3131453215478635,15.970781562910286,8.50377932238231,5.332682144889727,-0.9272542078762589,0.19698141131447944,-3.625133910540338,-3.0788146569281856,24.56545899915533,8.237303659473474,8.230699130936905,6.8940622658087385,-1.9945712944454739,30.609904642585917,15.95703362619765,9.72126948407049,7.829829261268049,3.1253441261582076,4.224554598287842,9.746934213391677,19.172848951479367,13.574804083157636,13.256372785008649,8.848710393043913,7.698107922856384,7.456115784317627,-25.864436649250944,-2.3218079863029466,18.40573681218861,15.37181201221382,15.306263256179811,11.927872030355955,17.034668548367197,12.865397846833279,10.646015551790759,8.66128123617282,13.919011848362832,5.193343302083237,15.574368870305848,11.61776072084217,11.151020957653488,10.478169044042229,5.703035222094616,14.309284082532669,8.935744091148978
4.693351468800364,-1.5518624309368052,-3.9607873807539278,-6.858153369892982,-14.522051707538413,16.08224123643658,5.095936177513747,1.9301500342154005,-1.2063387690671616,-7.727905845840323,-3.544043892743968,16.584499803431992,8.503978951721633,5.554132593129324,-1.1752353160925386,0.4467073447292913,-3.8288047015300357,-2.238046652956706,24.673930079634996,9.144272856709506,8.573759646706463,6.473558766944834,-0.7137886960857545,31.85940212884947,16.504114069124928,10.413204029616825,8.830506694536354,3.53533331462317,4.346843882751296,7.891915835697468,19.12115301696518,13.805750467352315,13.769300403267371,9.222442998265132,7.86108918914595,7.405005416022478,-26.88709657765987,-2.457052997311722,18.710955470710573,16.31571442420783,15.813303126910265,12.288900647222869,17.630885385194176,13.805877861703241,11.26655684976733,8.95669022540669,14.109124212997795,5.512397921839986,16.65309676648827,13.21868707480788,11.937639872388596,10.693880115152098,6.047251215213982,15.077803734724341,9.399134545965016
4.681567199429055,-1.735592619672972,-3.9980157353266,-7.087854593601806,-15.33577533129948,16.380958699675485,4.965371448189049,2.208821009477542,-1.133211150647731,-7.322015187921328,-3.724778801344348,17.498402023559247,8.697102885112814,5.598439408821003,-1.2825331810453848,0.7091104763687364,-4.07665217724621,-1.515398600100315,24.684246516141656,9.98804924366525,8.944758175503008,5.4338026339631025,0.2692943394135847,32.77777061962753,16.96289693561652,11.06702054507742,9.44054149732836,3.81696349939765,4.287462402531867,4.9149263631114914,18.613429485009178,14.23954925057203,14.426742120496135,9.625588657176952,8.092009770284395,7.425172172239753,-28.703093563980854,-1.4772006339193933,18.55724014432001,17.18126395283935,16.381702366102573,12.603942345564944,18.11077019571529,14.928878542625071,12.030020975817296,9.314361615480447,14.212184782554434,6.07761457468632,17.647643098033264,14.900551551475656,12.838816593160937,11.246568459991911,6.900420742523718,16.08223687070794,10.253861512414346
4.870235167473478,-1.7173928182824811,-3.7757735513716177,-6.97213694744349,-15.754845299138111,17.000085823084497,4.681143538212953,2.476548136870293,-1.0695907999488865,-6.810976542868883,-3.7828807375677824,18.571959201029376,9.061087598583594,5.461033762563701,-1.1927497523197568,0.9589845966358412,-4.287021320889391,-1.036409583275542,24.47994129970427,10.710592372182694,9.229169567735266,3.898238295033675,0.8056842457864102,32.91023458382785,17.21129278538746,11.602500893258773,9.575994804629717,3.915244933453083,3.9700015893921847,1.189259273358979,17.894491913604362,14.779841946830333,15.176094487791064,9.980722541441112,8.32061557872717,7.426404263981748,-31.026346894550397,0.3786357060669632,18.051252814161042,17.87138465607084,16.949692128391685,12.839365508246653,18.336748698859697,16.002426092540304,12.773713794371302,9.64117342083907,14.1093205115369,6.66734437005282,18.34839200869563,16.27622650193683,13.703669814777665,11.91372595318936,7.944823398278086,17.06331058337812,11.21113433543476
5.300795476975851,-1.441284205154214,-3.21882724857403,-6.366681149118124,-15.493976492370678,17.812722309531587,4.36619744597174,2.7500182685113,-0.9677242590295778,-6.209456800315558,-3.6610921347451937,19.607142402865726,9.558705053131064,5.206714531852696,-0.8796385005450764,1.1875562046394998,-4.370877199743717,-0.8559126503907435,23.965636099739644,11.346408479028682,9.335160645618455,2.049633457021688,0.8689992234756678,31.976179413153215,17.164202190764353,11.949568496580948,9.251824832434478,3.7911399459905333,3.3152508798980804,-2.825065883197544,17.133637659942664,15.299440805960664,15.904532162747616,10.197995370907035,8.422880970020104,7.264266731251787,-33.570060529005744,2.610971976960199,17.363423481113,18.303120240084418,17.409027810052955,12.926622274212184,18.23673782904265,16.7865073204593,13.314833508749201,9.82143496508924,13.717172067498161,7.045225853358318,18.60385030550674,17.02506532703896,14.365017613618587,12.417864119248256,8.801181725000536,17.774368297821216,11.95046885935475
