F3,F1,Fz,F2,F4,FFC5h,FFC3h,FFC1h,FFC2h,FFC4h,FFC6h,FC5,FC3,FC1,FCz,FC2,FC4,FC6,FTT7h,FCC5h,FCC3h,FCC6h,FTT8h,C5,C3,C1,Cz,C2,C4,C6,TTP7h,CCP5h,CCP3h,CCP1h,CCP2h,CCP4h,CCP6h,TTP8h,CP5,CP3,CP1,CPz,CPP5h,CPP3h,CPP1h,CPP2h,CPP4h,CPP6h,P3,P1,Pz,P2,P4,PPO1h,PPO2h
-21.96613095,-17.49945151,-16.01743263,-9.870302637,-14.134046,-17.63307969,-10.63426038,-12.07975073,-6.441916841,-4.824245982,-2.195688807,-14.58575336,-15.13259641,-7.012199747,-5.461810014,-4.726880924,-2.012774916,-1.492884104,-13.22620398,-7.0031159,-2.941290951,-3.0271625,-0.828615534,4.345843408,-6.459346198,-2.688003679,2.179385303,-1.497778995,-1.1973005,-2.774278838,-3.236768333,-7.303468459,-0.623731614,0.246831049,3.90322489,-1.551232618,-40.59980072,5.251970331,-3.229681014,0.07734995,2.068801894,2.993378822,-2.029195739,2.816594645,6.25186478,4.346528676,-0.553388528,-1.260478351,1.717726987,4.002930281,7.975060673,3.686001746,1.647126899,8.643776368,3.271737455
-21.83898584,-18.17663359,-16.73672255,-10.3376991,-13.44985647,-17.12081465,-11.04040665,-12.77563412,-7.16226288,-5.720690594,-2.644912477,-13.99120075,-15.45590003,-7.343373883,-6.072778148,-5.438553653,-2.12397689,-2.111850637,-11.80285399,-5.269543314,-2.725791968,-3.521223047,-1.854131471,8.587377814,-5.682027399,-2.573959617,1.947315695,-2.116631466,-1.710085923,-3.54016651,-1.060049633,-6.386774937,0.026035531,0.204418731,3.830018943,-1.932754577,-41.89840755,3.579580151,-1.297008622,0.666802896,2.087298613,3.342399384,-1.156601623,2.645680421,6.523418256,4.849612828,-0.421977583,-0.97949078,2.247461303,4.190112231,7.678076591,3.887451416,1.814911225,8.635304773,3.136851758
-22.03775097,-19.12532508,-17.826182,-10.8571817,-12.74296104,-16.87441713,-11.60248501,-13.65037593,-7.757806011,-6.566947563,-2.971028749,-13.68649553,-16.00030164,-7.768077829,-6.644416411,-6.10720061,-2.280074511,-2.312735573,-10.41476871,-3.755626091,-2.768985904,-3.803717148,-2.422901449,12.33237221,-4.855938795,-2.426501617,1.669854116,-2.761432879,-1.982275378,-3.962925226,-0.225153154,-5.605660852,0.435850006,0.094966748,3.885790647,-2.10152849,-43.7527665,1.983312056,-0.122714494,0.959983347,1.983332364,3.681644922,-0.754377318,2.249825326,6.566926419,5.179950435,-0.458542904,-0.928160524,2.016309668,3.900106434,6.969768513,3.844877093,1.685403403,8.149153708,2.436019915
-22.54765239,-20.13722802,-19.00872657,-11.23854446,-12.01037249,-16.92129569,-12.14922174,-14.47142875,-7.992565534,-7.10257065,-2.982615889,-13.67666297,-16.56887227,-8.108218727,-6.926537973,-6.458871413,-2.357312526,-2.00008328,-9.223453073,-2.777022064,-2.926519826,-3.649024302,-2.351863732,15.50382952,-4.042633437,-2.087008012,1.51832797,-3.205408935,-1.822511024,-3.677948465,-0.392966879,-4.947052019,0.651634524,0.031893526,4.144640769,-1.905413364,-46.12473445,0.517241962,0.25184286,1.034148831,1.857610308,4.04438599,-0.687366268,1.858581981,6.43163256,5.409900983,-0.449246743,-1.033483892,1.244025319,3.317269459,6.035347218,3.606301493,1.323132842,7.34212794,1.349550829
-23.19267952,-20.90349741,-19.91841013,-11.29128847,-11.29861563,-17.15893016,-12.44104829,-14.95035227,-7.662352102,-7.107131667,-2.580247685,-13.85394226,-16.88612709,-8.121281357,-6.69210698,-6.25260116,-2.209312348,-1.190316339,-8.388357797,-2.470166571,-2.995448853,-2.935359551,-1.62899347,17.97141008,-3.272224679,-1.414450238,1.670765567,-3.203586453,-1.117741987,-2.514890203,-1.024126863,-4.330147526,0.809479055,0.144877129,4.685070133,-1.220705635,-48.7258837,-0.819181343,-0.013701175,1.012276678,1.826317297,4.499839026,-0.739073439,1.680650403,6.225440136,5.664714262,-0.14357954,-1.108584951,0.283016924,2.724278783,5.124880091,3.300352792,0.886575104,6.41537587,0.163336427
-23.66615415,-21.08711864,-20.18944323,-10.86876503,-10.70327889,-17.36934301,-12.21745681,-14.79889701,-6.644088982,-6.45636939,-1.788350104,-14.01657893,-16.66364893,-7.555174452,-5.791834326,-5.340861564,-1.720981196,-0.019173989,-7.992849071,-2.734833815,-2.761440922,-1.717768727,-0.419647308,19.57085839,-2.517296699,-0.323774237,2.278301849,-2.556765344,0.117586324,-0.616023709,-1.608913036,-3.630530738,1.107270857,0.553154336,5.581833793,0.010854405,-51.33209188,-1.983593103,-0.621649886,1.038612409,1.996504249,5.134506569,-0.668801817,1.860915857,6.0981565,6.087104275,0.659166643,-0.913571532,-0.477259492,2.42016219,4.493026894,3.109071274,0.593750649,5.577182512,-0.806175172
-23.61781014,-20.42435594,-19.56208458,-9.91462408,-10.34383616,-17.27773098,-11.26536441,-13.80331178,-4.934993381,-5.164190475,-0.750696235,-13.91830499,-15.67616067,-6.222492955,-4.199507644,-3.71571917,-0.860513679,1.283448787,-7.971673497,-3.254527827,-2.045666965,-0.228877969,0.976741431,20.19656094,-1.678396522,1.195286316,3.438458956,-1.168847065,1.740193322,1.592300443,-1.836201129,-2.710739656,1.755393323,1.347432761,6.894317134,1.761047388,-53.31195908,-2.819725139,-1.212450365,1.260710147,2.453609433,6.037210292,-0.273292299,2.458526694,6.200649522,6.78928277,2.034415319,-0.240440375,-0.719350901,2.630014436,4.331807254,3.211576362,0.662613879,5.009760169,-1.294807113
-22.7672376,-18.81187347,-17.96408986,-8.48348647,-10.31138344,-16.64789406,-9.488650205,-11.89437168,-2.664472162,-3.387642508,0.318963333,-13.34540198,-13.82686771,-4.070683728,-2.025447209,-1.517602101,0.28987818,2.437995599,-8.092297009,-3.598954429,-0.746869899,1.194083865,2.204984762,19.91254323,-0.603770985,3.080566429,5.169828287,0.919966668,3.519829968,3.545474761,-1.651693286,-1.458089275,2.911262895,2.574303344,8.636853687,3.90935792,-54.36420056,-3.085139402,-1.454925356,1.804963924,3.248184891,7.271509776,0.565291235,3.451528771,6.645201763,7.81149365,3.902079734,1.013670221,-0.278227432,3.438534344,4.719606529,3.735582598,1.250943,4.84208103,-1.153960612
-21.00199346,-16.34988642,-15.54043962,-6.730691515,-10.60592148,-15.36547475,-6.950461796,-9.1872081,-0.074339662,-1.389958708,1.214272702,-12.1823439,-11.1805754,-1.216508161,0.507499776,0.9997962,1.545820022,3.179010362,-8.016700697,-3.370387696,1.13305983,2.227952928,2.953529294,19.00751678,0.86166247,5.217104516,7.402819466,3.530856006,5.209208514,4.753584867,-1.199618261,0.17583385,4.621933297,4.227665986,10.74746456,6.264255624,-54.32058093,-2.556666795,-1.118988694,2.753941297,4.38308057,8.855458885,1.854917523,4.760245229,7.472803609,9.10352091,6.052327415,2.812817861,0.831598978,4.773216437,5.606359429,4.72050845,2.412493204,5.138855223,-0.38318722
-18.42858309,-13.33547117,-12.6266362,-4.882872879,-11.10804761,-13.4841338,-3.882624835,-5.979685926,2.528684333,0.5225885,1.803653726,-10.45297227,-7.962763001,2.060853804,3.109670083,3.52638622,2.672355044,3.332794655,-7.41314775,-2.341446612,3.486569091,2.68870952,3.049527522,17.95302132,2.814812938,7.468707332,9.987606568,6.382328769,6.621845921,5.007146237,-0.68155035,2.154564294,6.798714027,6.24169758,13.07374357,8.598800662,-52.79877961,-1.157232321,-0.108002812,4.130723306,5.814243224,10.74902631,3.494947516,6.270810065,8.634539904,10.53010631,8.20464161,4.984966052,2.435875023,6.43431086,6.83383728,6.096545565,4.076225469,5.895529917,0.879052864
-15.36346918,-10.19802136,-9.669863947,-3.191639339,-11.6064355,-11.2334378,-0.658194961,-2.704625484,4.833591461,2.072393748,2.064943336,-8.33684207,-4.526403586,5.365961022,5.482847819,5.760354599,3.459077079,2.872593387,-6.090606773,-0.531737936,6.115730759,2.61228428,2.5141426,17.26104093,5.235001267,9.704530497,12.71363154,9.150864612,7.68276472,4.467847651,-0.221336669,4.34514773,9.219621546,8.4910754,15.37952688,10.69253445,-50.0979412,0.940157472,1.523056907,5.879844295,7.450039215,12.84034102,5.29365116,7.852419099,9.997609076,11.90253929,10.08172667,7.264782696,4.257620583,8.157950258,8.18470485,7.708217253,6.058039873,7.040575566,2.409678116
-12.26313319,-7.398639985,-7.122077812,-1.882568305,-11.86860506,-8.969017793,2.278444379,0.156696265,6.581952523,3.069831633,2.072942224,-6.140208549,-1.294373504,8.265715255,7.373077483,7.464181137,3.785307151,1.939187499,-4.108024611,1.793159058,8.759470625,2.248734735,1.558458393,17.27313311,7.950239731,11.80354415,15.33768283,11.53386274,8.433265856,3.614922839,0.197148178,6.523877003,11.56739533,10.79499769,17.37961837,12.37029308,-46.65304376,3.315927032,3.573956372,7.858403203,9.150899758,14.9561666,7.002240491,9.364587491,11.37020108,13.02635963,11.47551127,9.361333603,5.993283139,9.695285299,9.443909952,9.349683401,8.101184592,8.4481606,3.961852815
-9.617807079,-5.329599457,-5.339269627,-1.1119691,-11.73625979,-7.086210228,4.500942812,2.177299536,7.610811456,3.444522201,1.947607974,-4.233045354,1.308429508,10.37599773,8.603571836,8.494894259,3.651796409,0.810481716,-1.801781386,4.197142938,11.12443431,1.969524266,0.519263935,17.9736893,10.64488809,13.6464375,17.61483243,13.30183453,8.98732571,3.0589669,0.696215505,8.408391739,13.49590222,12.92331863,18.79853213,13.52192996,-42.91988759,5.4130096,5.730055851,9.843469006,10.74101841,16.87814856,8.362601147,10.65931453,12.54381486,13.74693624,12.27705381,11.02012851,7.380168174,10.87523339,10.45179367,10.80483893,9.929595283,9.952315124,5.321495246
-7.843004549,-4.235408531,-4.513336322,-0.943475237,-11.20573216,-5.93000892,5.685409747,3.074410498,7.870312557,3.244763558,1.794869363,-2.971440607,2.926061286,11.43325824,9.089241066,8.809277171,3.172708693,-0.181698169,0.282832508,6.208336395,12.92123517,2.119617119,-0.252518896,18.92217874,12.91210008,15.10489536,19.33164881,14.32679052,9.459671711,3.285443434,1.393200794,9.70127223,14.70277626,14.62531365,19.43668599,14.10749442,-39.5152357,6.715227986,7.609904605,11.55949341,12.02976935,18.3748559,9.151914163,11.59288373,13.3427512,13.98383925,12.47847975,12.0759402,8.241220367,11.63491097,11.13715826,11.89414019,11.31138157,11.36839,6.35174847
-7.197718092,-4.186613464,-4.65809943,-1.356108568,-10.46145048,-5.722037773,5.672024429,2.75829761,7.407097279,2.598528561,1.651392809,-2.623290304,3.327980617,11.33299234,8.825523552,8.442457771,2.524732394,-0.751481218,1.546920334,7.449949555,13.90670719,2.880703521,-0.508494146,19.34964655,14.3432078,16.03853187,20.33750818,14.58720866,9.906080531,4.468271873,2.282110604,10.15444846,15.00100616,15.66966601,19.22296018,14.14928244,-36.72597832,6.969462236,8.835554056,12.73045472,12.84375199,19.25198578,9.223496965,12.04194952,13.65955233,13.74343836,12.14997289,12.47593154,8.501818727,12.01181324,11.51831407,12.50163463,12.10669434,12.52561306,7.003664345
-7.750619189,-5.101402452,-5.642408805,-2.267653703,-9.838259539,-6.523247142,4.488771078,1.333769392,6.331780571,1.659819201,1.465313799,-3.311498836,2.445354237,10.13236975,7.867384752,7.476194885,1.870607093,-0.763757323,1.523557161,7.7286579,13.9188534,4.187720929,-0.194918811,18.40352432,14.62917291,16.30549271,20.56060746,14.14885394,10.28621844,6.392717035,3.160866093,9.631441956,14.35853585,15.88550477,18.23405942,13.70961462,-34.87879983,6.291938166,9.110367209,13.13887289,13.05822174,19.38645191,8.540687139,11.93010234,13.47638354,13.109493,11.39956403,12.26662066,8.182219761,12.10583785,11.67869246,12.59022217,12.28550643,13.30255467,7.305681453
-9.397079879,-6.795336605,-7.251057365,-3.564358447,-9.714845804,-8.241606262,2.331974327,-0.940885504,4.785674534,0.565339742,1.130810858,-4.991386933,0.382187459,8.02132741,6.313280233,6.017806887,1.300933815,-0.2900797,0.028462251,7.062787313,12.90684233,5.731185337,0.521538673,15.45713811,13.64572169,15.79427559,20.01447102,13.13548801,10.47185251,8.520159999,3.655445515,8.144740724,12.89945439,15.20987928,16.67615382,12.87059211,-34.00695716,5.119338838,8.293465223,12.6830051,12.62842407,18.76348379,7.186497741,11.25994185,12.86859653,12.21721114,10.34487337,11.56884468,7.373900041,12.03212948,11.72961903,12.20078445,11.92652222,13.65406764,7.336149159
-11.90901797,-9.047773949,-9.255631791,-5.134292274,-10.38790221,-10.67416938,-0.490075129,-3.72717138,2.908748825,-0.600565178,0.535831231,-7.471056414,-2.608129953,5.270438934,4.288909936,4.184316121,0.814758244,0.418427621,-2.781051852,5.630013562,10.95009843,7.068285353,1.313966112,10.37008532,11.49190102,14.46878827,18.79774911,11.70533273,10.31044404,10.21214731,3.348110338,5.865688754,10.87906003,13.71612952,14.83664462,11.72169022,-34.04014171,4.06592232,6.446065693,11.41315067,11.61149363,17.49267826,5.348820047,10.12435245,11.98137181,11.21657737,9.095649819,10.54433684,6.212367185,11.88330454,11.77316403,11.43840346,11.18513425,13.62455045,7.192550481
-14.99403066,-11.65133214,-11.46645621,-6.886142047,-11.95741757,-13.55653828,-3.629680727,-6.684168846,0.823881266,-1.811001032,-0.379918239,-10.45535949,-6.169946321,2.173166719,1.941724011,2.097495496,0.332125838,1.004938606,-6.461559007,3.68633766,8.254509956,7.779716418,1.799149819,3.598654219,8.474123547,12.40159406,17.07645632,10.02576824,9.697270947,10.97153878,1.946595001,3.089830397,8.622575858,11.61435209,13.01942475,10.35454922,-35.12329772,3.67495771,3.832289441,9.528035727,10.16151944,15.78655398,3.284728854,8.699922378,10.99478717,10.24113921,7.751299053,9.364679462,4.859918363,11.71335885,11.87937082,10.45672209,10.24901454,13.34278257,6.970793602
-18.34615256,-14.43304477,-13.75514478,-8.748218798,-14.26855759,-16.60982484,-6.766813437,-9.527102576,-1.358239841,-3.072886524,-1.577173248,-13.6049054,-9.910019245,-0.998812737,-0.558098877,-0.107436564,-0.256660876,1.134639659,-10.41717207,1.485511581,5.127209419,7.623285249,1.675961625,-3.902404146,5.04008239,9.787002096,15.06075216,8.258518224,8.635203142,10.63147786,-0.568678468,0.175569579,6.451502352,9.220662489,11.47404991,8.861973209,-36.8559552,4.196841697,0.872640108,7.336277639,8.50557402,13.92568976,1.27269918,7.219727015,10.09013764,9.391003197,6.415223233,8.19323707,3.49358143,11.54233428,12.07852467,9.430894023,9.300873383,12.9914068,6.748785173
-21.67977081,-17.24814564,-16.0428137,-10.65393568,-16.94633849,-19.57109461,-9.65632393,-12.05361269,-3.521725601,-4.395122343,-2.918637606,-16.59494182,-13.46482582,-4.016214714,-3.020110539,-2.277300378,-1.022314621,0.630900776,-14.07030033,-0.785127305,1.927672893,6.642303206,0.851032176,-10.95173081,1.677518243,6.922198019,12.98039067,6.55549475,7.264728257,9.4397044,-3.88656323,-2.528818377,4.62660623,6.89743117,10.34776724,7.338224526,-39.061375,5.496625598,-1.951676606,5.190155513,6.90341465,12.19896572,-0.436990643,5.922493361,9.419657399,8.730799401,5.200402949,7.17301336,2.29005724,11.37878184,12.37476542,8.53708529,8.483709535,12.76546542,6.590587664
-24.7519431,-19.96233021,-18.27058559,-12.5283988,-19.50671308,-22.21094559,-12.1515057,-14.14837803,-5.539756273,-5.761674995,-4.208889399,-19.16410022,-16.55679516,-6.704987437,-5.248542563,-4.253596066,-1.947380062,-0.454668997,-16.99961016,-2.997081135,-0.992702566,5.164274785,-0.521104738,-16.47450955,-1.183160365,4.156641067,11.05680116,5.049921421,5.839948083,7.961230106,-7.43008389,-4.752735863,3.309269569,4.986548612,9.678597783,5.883046106,-41.85289952,7.10138234,-4.210924541,3.412678451,5.599618876,10.84501115,-1.672246414,4.992931439,9.079465749,8.294506232,4.219582115,6.410440565,1.404995605,11.23790852,12.75984907,7.933108942,7.880287748,12.82449818,6.551789054
-27.36983686,-22.43887357,-20.37265524,-14.27617324,-21.50577905,-24.34397648,-14.19634886,-15.76775228,-7.279783727,-7.116475035,-5.253790735,-21.14268717,-19.02678664,-8.945549043,-7.067455767,-5.892865727,-2.923402922,-1.850155801,-18.99982529,-5.035767798,-3.354607882,3.69148907,-2.082446144,-19.7973625,-3.247609313,1.819427202,9.469873694,3.841567893,4.652332636,6.860927021,-10.52234871,-6.342037199,2.545482174,3.732093586,9.408205281,4.592640173,-44.93471338,8.391514293,-5.630425556,2.23107185,4.773849975,10.00556537,-2.364315862,4.519331934,9.095172106,8.091814848,3.568664615,5.962735981,0.950276864,11.14561919,13.21878196,7.727378223,7.512335952,13.24681353,6.670459754
-29.39420696,-24.53167778,-22.2554649,-15.77575112,-22.66772176,-25.83295109,-15.79230719,-16.90843305,-8.611144175,-8.359848272,-5.91647059,-22.45264246,-20.83165101,-10.65822824,-8.345099693,-7.087546232,-3.782987167,-3.147556817,-20.05812749,-6.756482714,-5.001028616,2.733444856,-3.380480254,-20.79872962,-4.396293952,0.148656405,8.329258281,2.982662154,3.936764467,6.654554701,-12.58846209,-7.265199895,2.279242019,3.227054335,9.417982551,3.544283766,-48.19071824,8.85187298,-6.149745933,1.73590989,4.503046036,9.697308051,-2.544414938,4.483001534,9.427633214,8.114784369,3.305959539,5.83694171,0.97201001,11.13473628,13.73862337,7.957056641,7.357385301,14.01063617,6.964746355
-30.75487857,-26.10675967,-23.80790093,-16.90448096,-22.95873185,-26.60897674,-16.96818113,-17.5943337,-9.439084308,-9.376394223,-6.16136779,-23.10233434,-22.01794168,-11.80520918,-9.025827193,-7.79475291,-4.353875413,-3.935964689,-20.266216,-7.958334247,-5.913242309,2.633523615,-4.015014582,-19.857082,-4.671897464,-0.751402883,7.667176039,2.472441759,3.800876103,7.510034114,-13.31497598,-7.580631236,2.387596547,3.406143497,9.573304819,2.785498391,-51.3351621,8.291796361,-5.90937283,1.884258737,4.753017465,9.827485215,-2.32963534,4.767627465,9.980982841,8.333505725,3.428257901,5.980340988,1.430473673,11.22146005,14.29660351,8.578205148,7.365043966,14.99641093,7.426454998
-31.46146059,-27.07960408,-24.9333251,-17.57718367,-22.58370081,-26.69002771,-17.7571709,-17.87277056,-9.741967261,-10.07521069,-6.067510589,-23.16996931,-22.68233609,-12.39568057,-9.149374479,-8.052731011,-4.534010582,-3.951536533,-19.73501353,-8.413110654,-6.200145999,3.436662663,-3.782239139,-17.65897203,-4.240776478,-0.928615996,7.432359517,2.252007389,4.182193214,9.171670759,-12.72687273,-7.393748218,2.71613098,4.064515778,9.750492149,2.319345591,-53.87355762,6.925807483,-5.191689693,2.526071056,5.386121896,10.22431082,-1.888017024,5.198095447,10.61477794,8.686790806,3.860127239,6.279637661,2.198567677,11.38020263,14.84501542,9.462062183,7.466907779,16.00988116,8.007380773
-31.60514698,-27.44308353,-25.57991534,-17.7780941,-21.8991626,-26.18688052,-18.18436141,-17.81227254,-9.586955944,-10.41814012,-5.795673852,-22.77821546,-22.93316737,-12.48915732,-8.843749667,-7.970806912,-4.341685266,-3.181891776,-18.55026556,-7.935043891,-6.059256277,4.860845196,-2.755701606,-14.95101239,-3.335581606,-0.560734442,7.495740547,2.210852819,4.858151462,11.03732351,-11.15769886,-6.823117302,3.108790589,4.914062662,9.853664293,2.099751831,-55.49216779,5.281573791,-4.320874057,3.447369176,6.190243812,10.68216694,-1.390877626,5.599297791,11.17224148,9.082743333,4.470138263,6.588260712,3.088695429,11.54088849,15.31181206,10.41079808,7.595902839,16.83046014,8.617300181
-31.3495642,-27.28465517,-25.76723319,-17.58441873,-21.28458289,-25.29771168,-18.27399959,-17.507426,-9.130092733,-10.44146593,-5.540616308,-22.07883802,-22.86036914,-12.19901909,-8.30454903,-7.70677167,-3.917804631,-1.873349567,-16.78701817,-6.476799964,-5.720471079,6.387172635,-1.267911186,-12.3262414,-2.199991117,0.100987762,7.685526771,2.215989236,5.517391143,12.36697078,-9.118589671,-5.972224704,3.433391242,5.658467365,9.813447386,2.039509941,-55.86174148,3.993910473,-3.551879914,4.425054585,6.929707167,11.01817468,-0.974426834,5.842211445,11.50891445,9.413297238,5.102194847,6.759967938,3.898343148,11.60504911,15.6094669,11.2089383,7.701366221,17.26872435,9.14917484
-30.89198184,-26.7690828,-25.58690541,-17.15822027,-21.02047172,-24.26737142,-18.05827473,-17.06666826,-8.581932534,-10.24913425,-5.476280091,-21.22768048,-22.52098271,-11.67550733,-7.748451465,-7.426729483,-3.490711807,-0.458923444,-14.57448682,-4.202414207,-5.391250825,7.421407722,0.185259674,-10.11706688,-1.051105579,0.791090643,7.82578517,2.144384444,5.852986227,12.53136428,-7.130076818,-4.928278989,3.592764951,6.064534917,9.584802271,2.034065008,-55.06887883,3.540678777,-3.007109435,5.268481316,7.395032821,11.1107355,-0.706720007,5.881434481,11.52904467,9.583955272,5.62495455,6.698019482,4.471241306,11.48610717,15.66766709,11.68635574,7.76224935,17.22217712,9.51828836
-30.40974432,-26.09245559,-25.17721561,-16.70503179,-21.21331428,-23.32082706,-17.58172725,-16.59011338,-8.148135784,-9.982366103,-5.706875454,-20.35155303,-21.94578039,-11.07613717,-7.356018285,-7.257419146,-3.302557741,0.581207501,-12.15166839,-1.482337986,-5.206425665,7.489928315,1.097570081,-8.410974815,-0.051352481,1.295426856,7.783888568,1.919555112,5.658121492,11.2210214,-5.576699662,-3.773946428,3.535644828,6.020703273,9.156336326,2.001423817,-53.24855443,4.050162579,-2.655016557,5.851891961,7.456909311,10.92850012,-0.564869654,5.773304116,11.2265774,9.549677625,5.982470278,6.400621954,4.755259899,11.16138203,15.47108054,11.76586642,7.801853099,16.70962889,9.692709567
-30.01841489,-25.43741457,-24.68989095,-16.42331547,-21.78810342,-22.60059356,-16.90758223,-16.15067682,-7.977940252,-9.788308885,-6.254802913,-19.53059667,-21.15675188,-10.53525732,-7.237721057,-7.261644153,-3.529844772,0.878555635,-9.868351525,1.180909607,-5.203528125,6.398851177,1.11313293,-7.156517611,0.70465229,1.501950279,7.520231361,1.54193011,4.889009905,8.546893774,-4.613488052,-2.583937209,3.274570626,5.560710314,8.556960968,1.912347276,-50.5891739,5.260757722,-2.33207032,6.136409911,7.108569819,10.53385443,-0.443188928,5.651772884,10.69394019,9.342013769,6.207733167,5.963904226,4.820601629,10.69994604,15.07868839,11.49667655,7.88290202,15.87236367,9.71724225
-29.7464886,-24.93128827,-24.25075763,-16.4491887,-22.55008496,-22.12549368,-16.11560015,-15.77967023,-8.127860104,-9.785880185,-7.072014858,-18.79031583,-20.18798636,-10.13415525,-7.418277999,-7.435532461,-4.230757189,0.282464102,-8.120553519,3.290975418,-5.333730933,4.290379032,0.124205989,-6.285806855,1.19244371,1.410828408,7.100871519,1.085356198,3.666316547,4.986135953,-4.157930807,-1.419860112,2.88283217,4.846891083,7.864590011,1.80395636,-47.87007527,6.624615608,-1.81683298,6.166326879,6.468772748,10.05248192,-0.185726628,5.682552924,10.10626886,9.074247706,6.40913443,5.557750813,4.837786419,10.25789686,14.62330146,11.05126483,8.091920427,14.94666794,9.711553856
-29.53740453,-24.62186172,-23.93049005,-16.81442265,-23.28015288,-21.78271147,-15.28923849,-15.46844186,-8.550947749,-10.04002475,-8.068280725,-18.09894872,-19.09743507,-9.884737426,-7.840762549,-7.723238809,-5.331262367,-1.111251209,-7.229727618,4.515122231,-5.492437252,1.589374502,-1.711372213,-5.789165348,1.453490109,1.119711234,6.676309691,0.670089818,2.229710436,1.216849623,-3.958979673,-0.320586093,2.481473282,4.116240889,7.207168845,1.772486408,-45.58363877,7.533575316,-0.916935193,6.054506374,5.757473549,9.636703024,0.369331576,6.012695063,9.683745879,8.912563618,6.729728127,5.367613267,5.019242696,10.03790802,14.27772128,10.66762777,8.508409841,14.19840073,9.826135441
-29.2856715,-24.48547777,-23.74141064,-17.44190659,-23.81932366,-21.37236983,-14.50440816,-15.18789139,-9.123814871,-10.55510186,-9.14707605,-17.38776493,-17.96679646,-9.739092396,-8.397399588,-8.049413486,-6.65776187,-3.012427804,-7.30463569,4.790840102,-5.560964077,-1.140237297,-4.031023709,-5.704573538,1.583067943,0.789114164,6.437720685,0.421647927,0.854682029,-2.096635662,-3.690134959,0.71594157,2.223328616,3.610169765,6.741412908,1.935951543,-44.02460716,7.555559021,0.461884127,5.956818474,5.240269935,9.421225702,1.332640164,6.718085141,9.622984274,9.018144058,7.280406904,5.514561923,5.534428588,10.21350748,14.19693617,10.56339962,9.162329373,13.84442719,10.17852167
-28.89088574,-24.45722117,-23.65415145,-18.17574661,-24.11995456,-20.69166117,-13.82463445,-14.91777203,-9.698219908,-11.28383391,-10.2248218,-16.5871088,-16.89031307,-9.618710021,-8.969194446,-8.353142643,-7.996153894,-5.041709337,-8.15774025,4.348282025,-5.451323108,-3.372771157,-6.385126337,-6.039223411,1.710138093,0.589185382,6.548116309,0.419683851,-0.238704234,-4.499191811,-3.051867636,1.73342636,2.252885178,3.504159321,6.609039385,2.38389554,-43.42454504,6.582769956,2.282501666,6.029373612,5.150185645,9.477878463,2.714947786,7.772371241,10.02786524,9.482080177,8.084806897,6.001998009,6.437683238,10.85595514,14.45933967,10.85514155,10.00572539,13.99182538,10.79666892
-28.31239943,-24.47258223,-23.63007123,-18.84015698,-24.24787384,-19.62304022,-13.30254794,-14.67660599,-10.1620517,-12.15075877,-11.24588975,-15.66580101,-15.96136192,-9.458988256,-9.466062522,-8.614746589,-9.156959325,-6.850436671,-9.323192968,3.632864236,-5.135752293,-4.775456643,-8.366171631,-6.679389619,1.965654912,0.647027575,7.072657949,0.662192376,-0.94686585,-5.848451479,-1.84872757,2.799493753,2.660110676,3.852514162,6.884355724,3.132330897,-43.40624101,4.852803362,4.383161851,6.387963107,5.615908464,9.796620222,4.401699187,9.0423461,10.85656073,10.26962789,9.046888707,6.694189,7.626873103,11.88554782,15.01935654,11.49764894,10.89823205,14.59161997,11.58019751
-27.60226529,-24.49942327,-23.65217206,-19.30252384,-24.33798983,-18.20158041,-12.98535074,-14.53642506,-10.48415056,-13.07331656,-12.18087431,-14.66305489,-15.26615281,-9.251238839,-9.852567433,-8.861404877,-10.03242122,-8.216478596,-10.19514586,3.140938982,-4.658773174,-5.298834449,-9.712773014,-7.360759622,2.436804435,1.006242252,7.935601441,1.052890057,-1.309155533,-6.313800682,-0.012654202,3.965276241,3.439946443,4.568769962,7.529985373,4.090243533,-43.60783103,2.821787074,6.513284669,7.067000411,6.602540005,10.2821445,6.155598666,10.30690586,11.90805387,11.20217853,9.959513371,7.344702982,8.854211177,13.06662103,15.70121071,12.27338037,11.62578099,15.43793013,12.30454419
-26.90041593,-24.55080499,-23.73790303,-19.52050091,-24.52538964,-16.6258618,-12.91988218,-14.60840875,-10.72226981,-13.97585671,-13.0070908,-13.69390166,-14.87286504,-9.058530448,-10.14991894,-9.151612415,-10.61387477,-9.074857639,-10.24700206,3.233398809,-4.13249524,-5.15864233,-10.3502729,-7.728654049,3.124417497,1.606562016,8.921504363,1.420080194,-1.48292833,-6.26661221,2.394470698,5.212725136,4.471902673,5.443904949,8.376898407,5.061170629,-43.68605765,0.963621939,8.396602204,7.991003578,7.901497638,10.76818552,7.661051839,11.30444417,12.86263522,11.99496144,10.55857892,7.674781637,9.791109262,14.06572316,16.2423112,12.85416415,11.95299515,16.22371023,12.68604486
-26.40017671,-24.67975871,-23.94020299,-19.5622192,-24.888358,-15.21123353,-13.15310125,-15.00915731,-11.00287827,-14.80214712,-13.70085511,-12.9320733,-14.8270419,-9.009141258,-10.42625757,-9.554795609,-10.96905056,-9.489800244,-9.229474417,4.016172722,-3.708492178,-4.726454261,-10.36939811,-7.455982288,3.927095681,2.288567313,9.722195558,1.567263175,-1.673056565,-6.110876182,5.190519848,6.426598289,5.535351331,6.201414426,9.152215091,5.789895491,-43.35662799,-0.41953766,9.791296921,8.977415069,9.175248138,11.06172433,8.596225827,11.7887728,13.36024236,12.33497339,10.59414889,7.463785152,10.11737799,14.54195293,16.36153169,12.90321544,11.68781694,16.62037212,12.47027097
-26.27503524,-24.938816,-24.31837609,-19.56697928,-25.41005725,-14.28586519,-13.710133,-15.80682424,-11.4601593,-15.50088153,-14.21880207,-12.54958813,-15.14125956,-9.247222456,-10.75789334,-10.11127101,-11.20290734,-9.593276141,-7.286046776,5.31364969,-3.5417975,-4.38371965,-9.968038539,-6.398415933,4.648855865,2.825027088,10.01793329,1.329781804,-2.057416908,-6.135846185,8.09796389,7.396225059,6.350224421,6.570968538,9.547349843,6.032255371,-42.67666104,-1.305992244,10.52935858,9.762327789,10.03070565,10.98725657,8.723869564,11.59410605,13.11531382,11.98818768,9.923058673,6.641946978,9.631425758,14.25685946,15.85092751,12.19059492,10.76157634,16.37685712,11.52863384
-26.60595308,-25.34372975,-24.89991315,-19.68420069,-25.98385733,-14.06817213,-14.56977393,-16.97311697,-12.16817017,-16.0158306,-14.49707567,-12.64192883,-15.77823893,-9.869251882,-11.19280688,-10.80620549,-11.39839946,-9.502718456,-4.91836629,6.744427054,-3.746099741,-4.369354546,-9.35812423,-4.696396903,5.051642043,2.984400406,9.587256986,0.63740272,-2.714635262,-6.406545014,10.79315801,7.874421014,6.661867359,6.368040549,9.313751119,5.639548011,-41.60673199,-1.910259908,10.55971995,10.07067662,10.13950408,10.43349311,7.967962037,10.6805186,12.0131882,10.88655862,8.569647105,5.329031315,8.319558539,13.15922165,14.64889187,10.68535984,9.272914765,15.400595,9.92520982
-27.35457917,-25.86511681,-25.66616318,-20.02440636,-26.46638253,-14.59772569,-15.66025149,-18.37854976,-13.10987673,-16.30041814,-14.48121254,-13.19450648,-16.65411991,-10.88826906,-11.74524793,-11.58097498,-11.57619672,-9.275545635,-2.805400705,7.883083387,-4.356514455,-4.700049552,-8.698638806,-2.767338387,4.936667423,2.596574343,8.38721462,-0.453380072,-3.59076864,-6.762802189,12.95142086,7.667274347,6.323234021,5.551965682,8.354139094,4.618954688,-40.46886681,-2.541414549,9.957449752,9.700072428,9.342166956,9.388535955,6.432684705,9.128058462,10.14450678,9.152100828,6.71455186,3.78945089,6.345714177,11.39052183,12.85239272,8.57216102,7.464819195,13.77841515,7.900880347
-28.34952654,-26.41321217,-26.53246123,-20.59776612,-26.71423156,-15.70138744,-16.84649756,-19.8037965,-14.15824583,-16.31265544,-14.13210495,-14.05784685,-17.63227797,-12.19773971,-12.37656413,-12.33578847,-11.69992276,-8.920433842,-1.574641219,8.418872949,-5.324470874,-5.200109655,-8.08329285,-1.217038158,4.205491155,1.59533998,6.567558512,-1.781612765,-4.529620001,-6.930038595,14.27344615,6.699710626,5.325543849,4.228306032,6.759810852,3.134583348,-39.7001115,-3.436941068,8.886187275,8.572346681,7.682297946,7.935743893,4.388729636,7.123347845,7.79808468,7.074647137,4.661119027,2.357039763,4.015315208,9.246945833,10.69608769,6.204027418,5.672555649,11.75683526,5.809445785
-29.32377272,-26.85956491,-27.36013851,-21.30196347,-26.62934301,-17.03143544,-17.9433258,-20.98840175,-15.1041586,-16.0277998,-13.44732917,-14.96892027,-18.53211331,-13.58516819,-13.0004242,-12.95480464,-11.68914733,-8.417748584,-1.564058305,8.275158401,-6.51465007,-5.577499424,-7.535649996,-0.642896559,2.916003577,0.055615314,4.450254186,-3.112079336,-5.320847666,-6.635986065,14.55905548,5.076412251,3.8177637,2.623562682,4.803105661,1.475611584,-39.25708106,-4.608251633,7.571251869,6.777181616,5.411268851,6.240648878,2.207984289,4.915279109,5.381332521,5.023827363,2.747026742,1.318079373,1.684799441,7.084290519,8.478621229,3.994245833,4.222345609,9.665682401,4.002984775
-30.00567795,-27.08999154,-28.00746737,-21.97067356,-26.20274663,-18.19186157,-18.76648262,-21.71499153,-15.73237802,-15.47102415,-12.49173624,-15.64441227,-19.17204635,-14.80261585,-13.52133736,-13.35180883,-11.46044673,-7.765687445,-2.686504926,7.636450447,-7.730945874,-5.552160307,-7.04128216,-1.419411249,1.288223398,-1.813133209,2.447443084,-4.20130278,-5.777395182,-5.740783004,13.77154882,3.077147908,2.068352721,1.024553596,2.865061959,-0.025997701,-39.09901656,-5.816036856,6.252929762,4.563214128,2.920129355,4.507768026,0.252063251,2.739675318,3.288304505,3.318129076,1.223324845,0.793955332,-0.356713512,5.188492022,6.45916963,2.271773073,3.314217777,7.801536339,2.695685852
-30.19389447,-27.03371203,-28.36385138,-22.4246857,-25.50243175,-18.85926728,-19.17281342,-21.86426138,-15.88616817,-14.71961875,-11.38830199,-15.86770124,-19.40749817,-15.62953449,-13.85094392,-13.48442103,-10.98411202,-7.028775107,-4.481610369,6.84743683,-8.776943887,-4.996350327,-6.601140641,-3.576582042,-0.364291367,-3.728650961,0.934870899,-4.883686129,-5.817521887,-4.325734955,12.04820346,1.066838295,0.368586502,-0.31365543,1.306519607,-1.111236403,-38.91212669,-6.68008456,5.123475906,2.265507102,0.611556166,2.917510529,-1.218963618,0.774158666,1.786588939,2.126729258,0.188538225,0.705175651,-1.949281609,3.697359518,4.790885351,1.177753838,2.959358381,6.337156951,1.889298702
-29.81997939,-26.688995,-28.38450074,-22.53685745,-24.65232408,-18.88098367,-19.10328462,-21.44877853,-15.52320099,-13.89635217,-10.30140256,-15.56260038,-19.17659357,-15.93949261,-13.92974018,-13.36331496,-10.30481259,-6.33083188,-6.286988161,6.261697612,-9.496886263,-3.987082729,-6.247154471,-6.763706536,-1.717884074,-5.400538264,0.154579568,-5.107475511,-5.489742739,-2.665821406,9.69980726,-0.60457864,-1.046434388,-1.233232686,0.363090447,-1.669036991,-38.26383741,-6.84162646,4.294551691,0.224910036,-1.205574659,1.590115368,-2.110169865,-0.893871375,0.938823922,1.418915363,-0.440062535,0.79490071,-3.0906514,2.568551027,3.482523499,0.61970972,2.963415777,5.265930009,1.367804528
-28.96983644,-26.12570391,-28.10526076,-22.28085175,-23.80055677,-18.31934578,-18.60784912,-20.60790826,-14.7332372,-13.14770835,-9.404313425,-14.8301242,-18.52540122,-15.73695628,-13.74309738,-13.04655785,-9.540508309,-5.822877443,-7.487775837,6.090871781,-9.81524536,-2.785310457,-6.042372848,-10.34287638,-2.538100947,-6.604536655,0.154900049,-4.948353404,-4.962480419,-1.1444754,7.149814495,-1.711913911,-2.066373346,-1.709910895,0.075680625,-1.769943974,-37.05540605,-6.149733818,3.774159337,-1.305040667,-2.399799809,0.557315361,-2.501902049,-2.270599098,0.593554001,0.988325389,-0.89358184,0.72281666,-3.909262543,1.616168418,2.416916017,0.310712243,2.98686456,4.412222332,0.779158945
-27.85224138,-25.45819623,-27.62258492,-21.73614358,-23.07688371,-17.41088163,-17.83215597,-19.55856459,-13.70763069,-12.60455159,-8.836409793,-13.90968648,-17.59680764,-15.14553351,-13.31941044,-12.61586069,-8.847999038,-5.632561118,-7.745787833,6.317749195,-9.756723913,-1.747769726,-6.059371514,-13.57397873,-2.754315716,-7.241762352,0.786267409,-4.586553656,-4.468223385,-0.119068869,4.829827623,-2.2245752,-2.727522773,-1.846021201,0.282345576,-1.640964149,-35.30939163,-4.756442843,3.473156082,-2.219523608,-3.037605243,-0.233786757,-2.600763624,-3.424313763,0.451209436,0.548687611,-1.459759703,0.199981508,-4.587301419,0.607328644,1.41923225,-0.113907771,2.665593013,3.507968744,-0.224727366
-26.73550569,-24.81014659,-27.06361871,-21.05928286,-22.57068919,-16.47438743,-16.98027682,-18.53389438,-12.68769783,-12.3498482,-8.674162765,-13.09731217,-16.59981327,-14.3662903,-12.72801259,-12.15783269,-8.37082522,-5.813080679,-7.098550209,6.715528194,-9.429090004,-1.195860194,-6.347435436,-15.80398079,-2.467209351,-7.352102639,1.759094012,-4.241318372,-4.223000416,0.204838798,3.073656345,-2.298094887,-3.17504282,-1.821062855,0.688669219,-1.580640187,-33.39730436,-3.091004772,3.238462657,-2.573625217,-3.333269818,-0.88631958,-2.658129571,-4.444687047,0.175761874,-0.154086542,-2.385024516,-0.90906862,-5.287146662,-0.639936285,0.3274527,-0.972068039,1.729385327,2.289566846,-1.856141437
-25.84831264,-24.26339629,-26.53216002,-20.41551954,-22.30881834,-15.78425676,-16.24090171,-17.70342633,-11.88054524,-12.3822538,-8.898891428,-12.63006096,-15.73317131,-13.59226266,-12.05021451,-11.73308646,-8.201957006,-6.329020296,-5.918138187,6.94065712,-8.994339952,-1.313100638,-6.913932872,-16.62794374,-1.910385251,-7.093100977,2.737252807,-4.106405095,-4.36420504,-0.175144886,2.023436691,-2.210410693,-3.598484774,-1.827901412,0.971505529,-1.861641657,-31.70421282,-1.73443968,2.899639754,-2.555836441,-3.563077598,-1.513790669,-2.866716938,-5.386643365,-0.472689846,-1.229506337,-3.770241568,-2.518355154,-6.076535595,-2.161950015,-0.929758547,-2.413490523,0.107892517,0.610375966,-4.089432392
-25.29948799,-23.82622019,-26.06490657,-19.91238539,-22.24958204,-15.46455562,-15.71885893,-17.12209981,-11.38909359,-12.60423792,-9.393953331,-12.58297377,-15.10819023,-12.93615116,-11.35483739,-11.35961573,-8.341281876,-7.061447943,-4.728250769,6.687562697,-8.607531676,-2.077164292,-7.703772447,-15.95296815,-1.350103909,-6.67025023,3.44730876,-4.282428958,-4.890267369,-1.048328492,1.614250345,-2.239152995,-4.136642054,-1.993097356,0.902237311,-2.627003719,-30.55352843,-1.183623473,2.339432825,-2.400135592,-3.947144243,-2.181130271,-3.289242442,-6.237519764,-1.547364538,-2.585530115,-5.522726686,-4.334300791,-6.899449056,-3.814030593,-2.29644647,-4.35556851,-2.031240074,-1.487241593,-6.645727315
-25.04664618,-23.43618341,-25.62457555,-19.5633782,-22.29836727,-15.4566104,-15.40352134,-16.7298703,-11.19080576,-12.85099902,-9.97935003,-12.838422,-14.7136538,-12.40458355,-10.68971401,-11.01765148,-8.690889926,-7.846327312,-3.964592386,5.832927125,-8.355925721,-3.267770595,-8.60547768,-13.97229284,-0.971032544,-6.257897963,3.754293721,-4.740061856,-5.655272987,-2.075814095,1.627305116,-2.549532806,-4.810934637,-2.326577609,0.437673626,-3.831456957,-30.46527945,-1.671504615,1.537275489,-2.297821336,-4.565174683,-2.871082302,-3.846115682,-6.919925206,-2.895866397,-3.963201238,-7.386287774,-5.958131212,-7.606836877,-5.319777556,-3.614389054,-6.516859551,-4.334148181,-3.777910407,-9.082165358
-24.90981863,-22.98343144,-25.11203147,-19.28468835,-22.32719798,-15.55538525,-15.17252805,-16.37892634,-11.1484592,-12.93402349,-10.45580208,-13.12694081,-14.41678765,-11.90471335,-10.06637105,-10.65723216,-9.097722365,-8.536003486,-3.798257476,4.487655172,-8.233423285,-4.564520818,-9.483509336,-11.09155439,-0.817571882,-5.946858407,3.682862434,-5.333622527,-6.426342562,-2.940609618,1.784797628,-3.147194791,-5.516524802,-2.726549416,-0.271658228,-5.261658204,-31.39672656,-3.093718323,0.573179877,-2.34309708,-5.335187358,-3.48744073,-4.349823468,-7.314189359,-4.207900654,-5.02578127,-9.013494145,-7.014110155,-8.010775033,-6.360966083,-4.674305107,-8.5051118,-6.368216676,-5.910567474,-10.93741993
-24.64089822,-22.35922441,-24.40914999,-18.93716805,-22.20695086,-15.50042593,-14.84083676,-15.89608633,-11.06303998,-12.69664676,-10.66000505,-13.13037639,-14.01773416,-11.29810446,-9.465118056,-10.21985056,-9.396828588,-9.037232259,-4.07605917,2.962775661,-8.140876401,-5.657250214,-10.20556944,-7.820656439,-0.784581027,-5.719020407,3.392702669,-5.841328734,-6.952517081,-3.451116007,1.872178798,-3.888499471,-6.05412888,-3.015551578,-0.935938861,-6.598732684,-32.97237108,-5.027282054,-0.392698771,-2.508237429,-6.044898596,-3.877273181,-4.583379681,-7.307370954,-5.123797491,-5.48386221,-10.07776492,-7.277672163,-7.960414893,-6.691058051,-5.293031952,-9.94831589,-7.761016568,-7.519519688,-11.89114513
-24.01410722,-21.50438776,-23.43324426,-18.3856825,-21.83903205,-15.08494007,-14.23400634,-15.14966896,-10.74562554,-12.06285946,-10.50631808,-12.60772923,-13.33659033,-10.47207659,-8.848079087,-9.657060576,-9.463517451,-9.321794974,-4.405683496,1.656142838,-7.92759442,-6.336678701,-10.66571129,-4.674436261,-0.670628423,-5.473293053,3.109069809,-6.033625776,-7.045482071,-3.596953829,1.825335164,-4.558049107,-6.212191692,-3.008956837,-1.231045215,-7.51879406,-34.90063069,-6.899973312,-1.173372304,-2.677186219,-6.438444309,-3.88830823,-4.390773165,-6.84258477,-5.359771103,-5.205263936,-10.37607898,-6.750805822,-7.403589913,-6.229200706,-5.378583729,-10.61417167,-8.313748573,-8.343955924,-11.87273357
-22.9118073,-20.43829572,-22.17386263,-17.55543756,-21.18172326,-14.23691034,-13.26307094,-14.0959803,-10.08020308,-11.0611616,-10.00368817,-11.49525127,-12.29423167,-9.397249533,-8.172611582,-8.94233568,-9.247755951,-9.403588306,-4.345886202,0.902675703,-7.453342752,-6.541181161,-10.79050826,-2.099253359,-0.281414053,-5.080916383,3.042627874,-5.742587732,-6.631150043,-3.522289931,1.750725209,-4.972125531,-5.856191153,-2.591280765,-0.9162318,-7.793092882,-36.60636448,-8.194344746,-1.61499049,-2.706802135,-6.314672233,-3.425925896,-3.742116043,-5.948677971,-4.804504114,-4.261872026,-9.885954198,-5.652798171,-6.408250213,-5.093507501,-4.957066044,-10.46699365,-8.051595625,-8.306701728,-11.08018599
-21.37908675,-19.26351366,-20.70736245,-16.4703967,-20.2668938,-13.0439303,-11.97056112,-12.7990957,-9.06488963,-9.820066703,-9.248555704,-9.943256169,-10.96219665,-8.156779885,-7.415798493,-8.083695786,-8.773208268,-9.296508743,-3.61626684,0.861300628,-6.646097898,-6.336957991,-10.53480481,-0.426059523,0.469662878,-4.449221582,3.32502095,-4.909631229,-5.761184863,-3.427650494,1.863359765,-5.058461584,-4.989371178,-1.763619845,0.085327661,-7.34369247,-37.78160906,-8.615266525,-1.645906052,-2.494034827,-5.60350948,-2.490843454,-2.756730487,-4.750146726,-3.5596813,-2.912303575,-8.772222416,-4.346806742,-5.152244098,-3.571517777,-4.169957716,-9.671556923,-7.205071223,-7.544391617,-9.911202937
-19.61262793,-18.13567953,-19.1766926,-15.24546884,-19.19620484,-11.71554892,-10.52618193,-11.4122253,-7.812038126,-8.532802797,-8.387863628,-8.270132379,-9.55310264,-6.924031726,-6.588675872,-7.126987567,-8.120115026,-8.983415433,-2.24091685,1.47517531,-5.546215227,-5.858108201,-9.878561553,0.157373785,1.49880312,-3.578813748,3.968651564,-3.608467682,-4.596144355,-3.468914266,2.36440185,-4.88975644,-3.774717538,-0.655668373,1.653994888,-6.263247337,-38.49248839,-8.177015632,-1.307284464,-2.032794445,-4.399884521,-1.200139452,-1.674590982,-3.447004098,-1.91048492,-1.514211065,-7.332095479,-3.225327299,-3.878628383,-2.03621342,-3.226707095,-8.524080237,-6.120741503,-6.360984008,-8.817711132
-17.90643365,-17.21562795,-17.75117401,-14.04927823,-18.12630479,-10.50237365,-9.181727915,-10.13818691,-6.517683475,-7.407982979,-7.57941581,-6.854283133,-8.352189573,-5.906321538,-5.744836309,-6.153399504,-7.388662399,-8.415292245,-0.557623637,2.515572762,-4.307053512,-5.238429452,-8.830762261,-0.370753994,2.559515426,-2.578748965,4.866575538,-2.032934204,-3.350762759,-3.678587211,3.312675802,-4.649584352,-2.496028605,0.503702527,3.506289855,-4.782238457,-38.78765466,-7.15441617,-0.742740482,-1.424495683,-2.940463288,0.234132428,-0.785932838,-2.269960662,-0.240799989,-0.407743302,-5.907127964,-2.595793458,-2.835183237,-0.83991404,-2.343393567,-7.351762517,-5.148955324,-5.134578125,-8.155014335
-16.56757684,-16.62318928,-16.5829549,-13.0559505,-17.23603963,-9.606467246,-8.19307834,-9.177754806,-5.410729762,-6.621117141,-6.957002346,-6.002837101,-7.620118956,-5.279069096,-4.981781836,-5.270607273,-6.671063606,-7.55080202,0.906407479,3.678429463,-3.155686817,-4.570629128,-7.451222943,-1.856163347,3.316982423,-1.641749961,5.825570105,-0.456028011,-2.241909742,-3.964400902,4.529056434,-4.549966386,-1.477605517,1.448132922,5.277179863,-3.201963994,-38.74642152,-5.956863734,-0.155270864,-0.85173943,-1.538969413,1.549854988,-0.351364109,-1.429569758,1.074733382,0.176568069,-4.799565398,-2.610153334,-2.223366641,-0.226432758,-1.69701842,-6.43502614,-4.551689611,-4.218875372,-8.087658139
-15.82177884,-16.40199749,-15.76731236,-12.39235894,-16.68062954,-9.123940536,-7.740381156,-8.680473083,-4.692044786,-6.275362519,-6.599965321,-5.85399795,-7.498084546,-5.129295407,-4.420485874,-4.596330341,-6.040766789,-6.407468603,1.637035194,4.690215837,-2.332308981,-3.904231437,-5.866393489,-3.988224331,3.459804649,-0.988339181,6.618945755,0.827947057,-1.448887156,-4.175286495,5.596490949,-4.74164348,-0.995442898,1.946330238,6.608923409,-1.830855034,-38.2815294,-4.962332025,0.242237714,-0.524130526,-0.502723028,2.488341941,-0.53852016,-1.07432176,1.765961365,0.170563673,-4.207784775,-3.250204645,-2.165101151,-0.284374387,-1.39009957,-5.945220205,-4.444555133,-3.851151415,-8.558816126
-15.75806986,-16.51355005,-15.33170469,-12.11033312,-16.55374446,-9.041776801,-7.880937788,-8.717791423,-4.490832866,-6.38773262,-6.531883357,-6.351808026,-7.955135622,-5.440487825,-4.177861233,-4.239691013,-5.546359199,-5.101967969,1.337171773,5.384974457,-2.01828976,-3.274336039,-4.270640209,-6.354962826,2.81377757,-0.802238724,7.043728868,1.565036118,-1.085351153,-4.195496895,5.972686415,-5.261681611,-1.205188622,1.864572793,7.236082397,-0.921005854,-37.35269674,-4.383970811,0.272351173,-0.615953221,-0.059005438,2.85601303,-1.391197024,-1.268405079,1.721543914,-0.342679921,-4.199292076,-4.365942056,-2.693963153,-0.951237295,-1.44720152,-5.92740364,-4.801815084,-4.107973529,-9.343885001
-16.31599656,-16.8622515,-15.24916295,-12.18408557,-16.85683565,-9.27516659,-8.540863819,-9.272498585,-4.839754978,-6.89460721,-6.731943635,-7.287528486,-8.801741066,-6.114702331,-4.332254946,-4.274761126,-5.226685835,-3.863748173,0.045016419,5.71953715,-2.283952461,-2.752545885,-2.914920427,-8.53110763,1.405386321,-1.179639668,6.963678316,1.593781747,-1.20002891,-4.046905057,5.166758805,-6.037160573,-2.111812122,1.196412717,7.039538205,-0.63163894,-35.83788162,-4.235181362,-0.17437995,-1.222517257,-0.312286244,2.565629587,-2.833481202,-1.984745396,0.995359578,-1.189783967,-4.722729732,-5.748558978,-3.760664177,-2.059762665,-1.833430163,-6.325631463,-5.506462209,-4.909777164,-10.16322811
-17.31684767,-17.33474509,-15.46436111,-12.52736198,-17.49195123,-9.726260674,-9.550298578,-10.24993486,-5.668629527,-7.668845119,-7.143246652,-8.392086635,-9.759625427,-7.014857086,-4.889233978,-4.713675842,-5.122788321,-2.985944985,-1.876797958,5.73297739,-3.074412508,-2.467780891,-2.055119694,-10.18183636,-0.541875269,-2.100173024,6.341936262,0.880203167,-1.780948147,-3.915300081,2.939676524,-6.928324434,-3.581350171,0.057720227,6.051190932,-1.017464576,-33.36955387,-4.371099848,-1.125409111,-2.337112662,-1.234194743,1.651628895,-4.698057165,-3.115244934,-0.230866978,-2.18026066,-5.643197365,-7.195795816,-5.249655007,-3.403771065,-2.472009129,-7.021992011,-6.407940021,-6.062367474,-10.79159679
-18.53573679,-17.84398919,-15.92523832,-13.03031032,-18.28532434,-10.34038339,-10.71208401,-11.5051264,-6.826616758,-8.553354932,-7.688306205,-9.447236678,-10.56523242,-8.020245913,-5.769489543,-5.494872361,-5.269672954,-2.729728059,-3.869576455,5.4843923,-4.234185356,-2.578299344,-1.874529011,-11.14443603,-2.673840217,-3.436237716,5.255645595,-0.469277749,-2.756808423,-4.083720663,-0.550447053,-7.798909276,-5.386554572,-1.349852523,4.42905136,-2.02481353,-30.04813356,-4.585851713,-2.526779096,-3.859157785,-2.683969811,0.259254936,-6.776745042,-4.503213515,-1.71277761,-3.173680347,-6.788864889,-8.552057234,-7.005361663,-4.796822304,-3.266888227,-7.878898808,-7.379281722,-7.325978406,-11.12974333
-19.77140103,-18.3563059,-16.596516,-13.58967425,-19.02912651,-11.11944109,-11.86680068,-12.86898153,-8.111199166,-9.387831893,-8.271958086,-10.35339934,-11.06168398,-9.060779021,-6.813977871,-6.48278639,-5.679808466,-3.221506351,-5.383436472,5.009123432,-5.56038887,-3.212180168,-2.414773763,-11.47211171,-4.617769916,-4.990456832,3.879475692,-2.226467932,-4.001593219,-4.808566486,-4.742343528,-8.57886143,-7.27108789,-2.798078937,2.41363387,-3.507752263,-26.14914816,-4.718538514,-4.256425176,-5.625313689,-4.449436184,-1.390660549,-8.866363573,-5.975264746,-3.206707258,-4.106293454,-7.984925138,-9.715876222,-8.851000193,-6.10335195,-4.117451192,-8.761394403,-8.338785865,-8.474760666,-11.21199248
-20.89498427,-18.88628077,-17.45307683,-14.12543242,-19.53951964,-12.08787553,-12.92973775,-14.17419371,-9.299904683,-10.02853804,-8.779644757,-11.12817559,-11.24455018,-10.1126894,-7.812692316,-7.485887822,-6.313910023,-4.369368397,-6.070121301,4.317761197,-6.860116908,-4.381408796,-3.528878302,-11.4101413,-6.089941832,-6.542804446,2.453263064,-4.084663341,-5.333820504,-6.162836673,-8.802664008,-9.278305488,-9.003416013,-4.086534844,0.279861064,-5.24432837,-22.07702438,-4.716146243,-6.144043726,-7.445427012,-6.289397089,-3.043726715,-10.79114217,-7.366316017,-4.515638323,-4.975266352,-9.071701394,-10.61600799,-10.60583298,-7.242067048,-4.92228113,-9.550149773,-9.232405082,-9.340478297,-11.15829227
-21.8644558,-19.47264632,-18.45740366,-14.58681707,-19.71016697,-13.23979208,-13.89260054,-15.27431449,-10.19009067,-10.36844418,-9.087416126,-11.85441887,-11.24508377,-11.16908843,-8.554442639,-8.295738884,-7.061699523,-5.85207635,-5.882231579,3.437375836,-7.998576456,-5.92434002,-4.890166099,-11.29035206,-6.962493835,-7.896458677,1.235940175,-5.714200495,-6.529228623,-7.942399504,-11.85353423,-9.95335174,-10.40987652,-5.084123169,-1.708063086,-6.961367997,-18.82034083,-4.635780166,-7.988369417,-9.137557281,-7.969122182,-4.460571092,-12.42225194,-8.550206553,-5.516970936,-5.802716555,-9.92212218,-11.18968313,-12.10849656,-8.172604398,-5.587412999,-10.14444105,-10.01440872,-9.832891541,-11.09680068
-22.69361018,-20.13658264,-19.53016929,-14.94394995,-19.54249889,-14.48238081,-14.78431711,-16.05352742,-10.62582702,-10.34326665,-9.075006543,-12.5926364,-11.25329695,-12.19704158,-8.873173684,-8.730595113,-7.747673909,-7.195582112,-5.061693253,2.473324773,-8.916695293,-7.50919751,-6.066384973,-11.40001335,-7.271205004,-8.909828615,0.444589938,-6.831905682,-7.351627875,-9.679971716,-13.23118406,-10.64597034,-11.38624762,-5.75256422,-3.335466408,-8.380552591,-17.11162548,-4.573449612,-9.577818697,-10.5494013,-9.293298019,-5.462001072,-13.68575049,-9.458758879,-6.165421376,-6.590835938,-10.44831227,-11.3712967,-13.23864161,-8.874743106,-6.038192765,-10.46207307,-10.62349709,-9.933333806,-11.09069741
-23.40613736,-20.84252172,-20.53760608,-15.17677629,-19.14436116,-15.6118151,-15.61319819,-16.43370511,-10.52034761,-9.93830654,-8.657050749,-13.30373077,-11.4211012,-13.10213694,-8.687648572,-8.67742429,-8.161520915,-7.910879476,-4.028033959,1.644206938,-9.611201769,-8.702390074,-6.636289859,-11.86250728,-7.163523749,-9.50548477,0.202896619,-7.260861241,-7.59385418,-10.76385709,-12.68907155,-11.32550618,-11.88831434,-6.136327283,-4.460419411,-9.263097608,-17.24365059,-4.577488135,-10.7214109,-11.57034564,-10.12908521,-5.955049176,-14.55523263,-10.07964148,-6.476556008,-7.298397888,-10.60546278,-11.09902356,-13.93290526,-9.335206077,-6.23261018,-10.4627957,-10.97227348,-9.683573646,-11.11458643
-23.99720321,-21.49380392,-21.30719145,-15.27460996,-18.69752298,-16.3567467,-16.32687981,-16.3790141,-9.875851537,-9.198294168,-7.82428001,-13.8375216,-11.78329292,-13.72643636,-8.024067665,-8.121276215,-8.120132577,-7.660116107,-3.209037846,1.255582502,-10.09980331,-9.107958186,-6.325371072,-12.5639022,-6.816939682,-9.660911329,0.50984785,-6.964982776,-7.140536616,-10.66198816,-10.47630568,-11.86511588,-11.91454637,-6.331632315,-5.030993607,-9.460860581,-19.21757398,-4.611175013,-11.27928383,-12.13659464,-10.41675054,-5.947365638,-15.05135193,-10.4536188,-6.513492243,-7.850663866,-10.40748927,-10.35341844,-14.20069169,-9.554108763,-6.178432748,-10.16500788,-10.97709042,-9.168145935,-11.07796402
-24.41845525,-21.95539019,-21.67175422,-15.2453601,-18.40841258,-16.46951525,-16.80571731,-15.90045239,-8.785586703,-8.228350978,-6.67179801,-13.98818892,-12.23147101,-13.88781006,-7.008229531,-7.150940977,-7.539413343,-6.387895375,-2.890944428,1.611684448,-10.38343018,-8.514399392,-5.113937689,-13.17700223,-6.362902766,-9.403011656,1.232465304,-6.058858501,-6.023244875,-9.145140321,-7.2610231,-12.07657946,-11.4965345,-6.451016237,-5.093109948,-8.962945139,-22.52787203,-4.554929057,-11.19222163,-12.22945339,-10.18122647,-5.542524123,-15.24085903,-10.66573143,-6.373978214,-8.170426515,-9.934758161,-9.194018915,-14.13090663,-9.560692706,-5.941930347,-9.648578736,-10.59731913,-8.493033855,-10.87777932
-24.59642314,-22.09551293,-21.52482321,-15.12495533,-18.44500702,-15.82856255,-16.89306741,-15.05781806,-7.424324758,-7.184934081,-5.402721163,-13.58840691,-12.5508291,-13.43938898,-5.832475192,-5.937462778,-6.486441943,-4.369290296,-3.139871544,2.888580446,-10.42524017,-6.99312978,-3.270542213,-13.27183611,-5.845405308,-8.800542871,2.136535163,-4.780975133,-4.432729389,-6.414641169,-3.93069097,-11.79077076,-10.7017822,-6.586593429,-4.776506326,-7.904854185,-26.5262986,-4.26684939,-10.50676945,-11.88323182,-9.535984253,-4.910990899,-15.22397972,-10.81743437,-6.172325792,-8.218706472,-9.323081223,-7.770386538,-13.87061166,-9.423737916,-5.635296456,-9.050459157,-9.865341086,-7.769360943,-10.46218855
-24.46209492,-21.83158957,-20.86106637,-14.97040524,-18.87108329,-14.50136352,-16.44628044,-13.94385514,-6.011194831,-6.245077997,-4.284355396,-12.59601626,-12.49325609,-12.32429014,-4.699344904,-4.683623562,-5.184984659,-2.145407828,-3.806018459,5.02442327,-10.15952676,-4.911503341,-1.291329594,-12.46654879,-5.22844597,-7.951616185,2.949371075,-3.433816821,-2.690111211,-3.090041845,-1.320978411,-10.94039507,-9.633112958,-6.783598718,-4.26432548,-6.539601329,-30.35508571,-3.676245022,-9.368755518,-11.18705067,-8.662867745,-4.25318348,-15.1051743,-10.99067918,-6.017074912,-8.013221275,-8.725661121,-6.295756063,-13.57962817,-9.239704719,-5.378515542,-8.522176668,-8.887161334,-7.087196522,-9.8569359
-23.99006741,-21.16417629,-19.79407436,-14.84557634,-19.612628,-12.74774176,-15.39968004,-12.66721566,-4.760023919,-5.569807287,-3.580133249,-11.14308706,-11.87314308,-10.61473636,-3.770077347,-3.574664186,-3.957557467,-0.352945458,-4.589487623,7.684609206,-9.514407164,-2.823033981,0.248043948,-10.56615378,-4.434050449,-6.968426303,3.442835149,-2.30102646,-1.165402815,-0.025412279,0.045416326,-9.605423658,-8.418383721,-7.023319775,-3.741401777,-5.165972682,-33.30565877,-2.837999942,-7.985852151,-10.26515238,-7.768016994,-3.745701127,-14.96112794,-11.22220336,-5.987243707,-7.620790913,-8.267072722,-4.987753174,-13.38585828,-9.105635779,-5.253937995,-8.174836319,-7.81132974,-6.490979871,-9.148685214
-23.23028997,-20.18697004,-18.53780135,-14.80652097,-20.46891485,-10.96313258,-13.81428163,-11.34374753,-3.842043229,-5.272629895,-3.477708611,-9.521651511,-10.64299695,-8.510775664,-3.13672584,-2.74254424,-3.13257379,0.47550373,-5.147379624,10.32271807,-8.449164792,-1.292568695,0.870895259,-7.647522221,-3.397601445,-5.958657628,3.50520896,-1.574429939,-0.169621904,1.968650696,0.09841666,-8.008036673,-7.201388926,-7.226069644,-3.339329834,-4.0369373,-35.19660895,-1.945391237,-6.580590671,-9.259511607,-7.034133611,-3.491740259,-14.82084062,-11.49501103,-6.115293902,-7.136216186,-8.007882921,-4.005169495,-13.35092566,-9.086495927,-5.275065112,-8.039795405,-6.785933972,-5.96942045,-8.44477467
-22.30092456,-19.05924882,-17.34976146,-14.87417962,-21.16052052,-9.555807946,-11.87693661,-10.07849105,-3.348251462,-5.389742903,-4.021069595,-8.089156905,-8.910844798,-6.293406944,-2.811317858,-2.243214812,-2.943131141,0.08122597,-5.204685111,12.32524447,-6.994292778,-0.714967534,0.349517677,-4.062047854,-2.122535065,-5.014374213,3.171837241,-1.314165024,0.134508878,2.399480961,-0.78680982,-6.445811898,-6.119675112,-7.283809931,-3.104882428,-3.291823632,-35.95846814,-1.277437022,-5.33504859,-8.307800479,-6.579746877,-3.501560456,-14.64975405,-11.74168011,-6.37301383,-6.643584753,-7.915826989,-3.391691061,-13.44590073,-9.176894223,-5.371323631,-8.045988134,-5.903145349,-5.454842095,-7.814639605
-21.3587659,-17.96268931,-16.46253036,-15.02249265,-21.41295631,-8.818772956,-9.864193543,-8.957608436,-3.278009405,-5.876214273,-5.094030289,-7.14952105,-6.911429012,-4.259458216,-2.748792276,-2.06941753,-3.446232377,-1.436677649,-4.613876283,13.20132172,-5.264917088,-1.179534688,-1.216194552,-0.343796396,-0.694454035,-4.198165332,2.610966733,-1.443182273,-0.220688199,1.264375107,-1.926572912,-5.182545581,-5.27507275,-7.097998616,-2.99192068,-2.923244806,-36.02399937,-1.088676734,-4.343651951,-7.512147682,-6.429282961,-3.690467615,-14.35736367,-11.86817865,-6.675709504,-6.186251307,-7.878442741,-3.061081139,-13.56123591,-9.291603888,-5.405792296,-8.038178682,-5.172226244,-4.841282862,-7.24676463
-20.55272908,-17.05129136,-16.01914964,-15.18712957,-21.04671179,-8.836013843,-8.073017536,-8.049204581,-3.556331944,-6.621542071,-6.451416817,-6.845289462,-4.932166727,-2.650194466,-2.883556106,-2.177416545,-4.505507976,-3.664964029,-3.372806917,12.74827998,-3.44980031,-2.457557712,-3.432270822,2.932667814,0.740620598,-3.536639295,2.057258301,-1.793172139,-1.028758843,-0.9660463,-2.571553645,-4.358241345,-4.719882494,-6.61894183,-2.889397655,-2.795387986,-36.01785333,-1.508536808,-3.599930604,-6.921079442,-6.517067938,-3.90632425,-13.82633187,-11.78652077,-6.900787587,-5.757715588,-7.748260389,-2.833693292,-13.54132463,-9.281570375,-5.221295258,-7.828593512,-4.528503123,-4.015899744,-6.6482528
-19.98138368,-16.41524257,-16.04825869,-15.29186638,-20.05326513,-9.454043818,-6.743727401,-7.409797485,-4.068778075,-7.485329816,-7.792011714,-7.102520685,-3.232609143,-1.605375481,-3.16444268,-2.520269366,-5.834403907,-6.011070316,-1.602745753,11.1213564,-1.773900304,-4.095932684,-5.735781301,5.316856446,2.017712728,-3.025872243,1.726678488,-2.174341436,-1.983655176,-3.522069139,-2.153454149,-3.939932966,-4.446198704,-5.875459415,-2.676364317,-2.713258997,-36.08348521,-2.473847487,-3.014270089,-6.520076255,-6.71554116,-3.977467995,-12.95457601,-11.4449822,-6.918390255,-5.318421337,-7.400586558,-2.505016936,-13.23081237,-8.976218609,-4.69875561,-7.274779595,-3.866749493,-2.90788109,-5.891643904
-19.68695455,-16.09077787,-16.49308513,-15.30139714,-18.63920372,-10.35679868,-6.020974302,-7.104136783,-4.718421107,-8.355419552,-8.866323751,-7.683825084,-1.999145958,-1.166510116,-3.592909709,-3.086440364,-7.094424565,-7.900479734,0.496029617,8.780670682,-0.448311399,-5.589673907,-7.579085914,6.596279548,2.998425231,-2.647080595,1.737913071,-2.446878968,-2.794747655,-5.616032034,-0.459419503,-3.740682268,-4.395527515,-4.9816972,-2.283131746,-2.515301068,-36.33109361,-3.739349209,-2.460497198,-6.244826118,-6.883927017,-3.769792626,-11.70858303,-10.85649532,-6.639723286,-4.83782432,-6.800590689,-1.934207855,-12.53291991,-8.253632246,-3.813947414,-6.350748831,-3.105086576,-1.533893535,-4.884757169
-19.6712259,-16.08716195,-17.26049404,-15.26236007,-17.19958061,-11.19292313,-5.942152538,-7.208978135,-5.467451781,-9.185273843,-9.554702508,-8.297413381,-1.325955828,-1.304491911,-4.227285323,-3.906871803,-8.019601631,-8.965843782,2.661778698,6.327574417,0.363283756,-6.57983261,-8.613329062,6.797488052,3.593115363,-2.399962902,2.055670649,-2.582412486,-3.299252495,-6.727027675,2.297695799,-3.517887806,-4.496068331,-4.126986115,-1.741221198,-2.154938226,-36.66039429,-4.96992978,-1.836729497,-6.014250065,-6.929315439,-3.240954956,-10.14461513,-10.09464966,-6.045263969,-4.322934794,-6.031065502,-1.10700857,-11.43945715,-7.085765468,-2.654563768,-5.16173108,-2.231368173,-0.001762866,-3.623174491
-19.92470166,-16.41699413,-18.27787078,-15.31370027,-16.22679787,-11.70873998,-6.457083005,-7.804730129,-6.349041448,-10.00622852,-9.894395883,-8.721088051,-1.231015966,-1.958850682,-5.153456922,-5.036547288,-8.501667965,-9.141399859,4.593331356,4.295020118,0.568218994,-6.969586825,-8.785889749,6.137192913,3.766198777,-2.322595611,2.498571048,-2.67165236,-3.508120987,-6.753747621,5.547877798,-3.085069949,-4.689765348,-3.53159933,-1.184316443,-1.730030215,-36.86876538,-5.857663114,-1.106554691,-5.756560754,-6.833321643,-2.458649592,-8.394684513,-9.259562256,-5.184731591,-3.822314343,-5.266504952,-0.139863761,-10.0262687,-5.551825794,-1.390890173,-3.912196146,-1.310015856,1.515437265,-2.206579883
-20.45605392,-17.12217023,-19.53514373,-15.66342211,-16.18078201,-11.84543918,-7.471861822,-8.957771793,-7.450701974,-10.91480872,-10.0545363,-8.905935699,-1.691800832,-3.074776906,-6.445176781,-6.521344069,-8.617262038,-8.653068725,5.980133147,2.975379219,0.155793157,-6.932934429,-8.335312236,4.929539897,3.526636123,-2.488163049,2.803859635,-2.884411906,-3.586892924,-6.003072169,8.535728566,-2.393709537,-4.943705178,-3.380679405,-0.798014384,-1.44566402,-36.93379376,-6.228882077,-0.307818021,-5.42946809,-6.643235871,-1.580305986,-6.629029785,-8.437145671,-4.158232016,-3.408296344,-4.706180962,0.768019437,-8.423621719,-3.814182696,-0.212841131,-2.831135202,-0.454662703,2.837216036,-0.805846565
-21.30172998,-18.26719699,-21.08138493,-16.52558912,-17.35085736,-11.75118349,-8.886984714,-10.68556029,-8.866453683,-12.02664131,-10.25894135,-8.992112292,-2.669237197,-4.612284114,-8.118727201,-8.356516427,-8.58803068,-7.908006844,6.534156097,2.335764101,-0.812201154,-6.813909655,-7.684189843,3.467459777,2.907560982,-2.982987809,2.724238152,-3.397594313,-3.771938115,-5.014557918,10.53471028,-1.558351107,-5.245930174,-3.763661189,-0.745486769,-1.525364987,-36.72448245,-6.095390757,0.472599638,-5.021048911,-6.435971455,-0.798822526,-4.993542639,-7.65481287,-3.076975641,-3.133597719,-4.486838626,1.413854409,-6.764799846,-2.055286955,0.746670141,-2.078889325,0.230466472,3.851579641,0.408953732
-22.50673327,-19.90437531,-22.97966263,-18.03726663,-19.75210359,-11.71697071,-10.61901408,-12.92955465,-10.63914161,-13.42268877,-10.69096591,-9.244662343,-4.114504108,-6.527770008,-10.09963595,-10.46053221,-8.682968357,-7.330086819,6.051643968,2.067037623,-2.216730029,-6.94897483,-7.268739454,1.951316228,1.958156912,-3.861158353,2.125938041,-4.310234811,-4.250868771,-4.298081926,11.04864562,-0.804246761,-5.582863909,-4.628324439,-1.088344782,-2.106287166,-36.48844457,-5.631827163,1.145828003,-4.533603652,-6.261798083,-0.275045672,-3.557639511,-6.857737918,-2.018119975,-2.98624201,-4.611163634,1.680135066,-5.141258853,-0.413555226,1.468106755,-1.678335076,0.709210265,4.563405711,1.344456811
-24.07953456,-22.02205092,-25.24220781,-20.18488331,-23.09002172,-12.05664897,-12.59848951,-15.5411483,-12.71707607,-15.10425831,-11.41870373,-9.933170591,-5.952910833,-8.743646626,-12.21979993,-12.67409774,-9.111836969,-7.207028224,4.477604777,1.7359297,-3.898403937,-7.50493946,-7.376794232,0.470081108,0.747809484,-5.099395034,1.046035263,-5.586929256,-5.070639942,-4.111098074,9.948992113,-0.36421809,-5.914623738,-5.776070797,-1.740078739,-3.161515004,-36.57057624,-5.088265355,1.6658643,-3.964264202,-6.098025678,-0.080649659,-2.296521642,-5.925111835,-0.99854401,-2.871067989,-4.923111111,1.590523826,-3.57856116,1.062252076,2.057421499,-1.499584685,1.041200183,5.101756186,2.027704545
-25.9513698,-24.4992035,-27.7703698,-22.77000973,-26.81252598,-12.97354919,-14.74898851,-18.28800828,-14.93980558,-16.97025828,-12.36976739,-11.19790567,-8.060148651,-11.12091663,-14.24812633,-14.78536272,-9.945646138,-7.598383996,1.958895133,0.970331675,-5.676495268,-8.394537746,-8.041766344,-0.958854279,-0.622859645,-6.574399283,-0.30921084,-7.046318225,-6.102296508,-4.361529144,7.511591583,-0.370482811,-6.160575747,-6.905116581,-2.480535489,-4.485073416,-37.13383245,-4.679623607,2.051761897,-3.289409847,-5.835790037,-0.168906244,-1.107761279,-4.715235823,0.019519356,-2.624517527,-5.150747728,1.303725495,-2.040230012,2.421754645,2.704832044,-1.31022421,1.364422188,5.680440397,2.598657904
-27.94792526,-27.08707913,-30.32327498,-25.42304142,-30.23544463,-14.46392822,-16.95357492,-20.88442599,-17.05372695,-18.82529152,-13.35829424,-12.96071344,-10.2457592,-13.44932221,-15.93470936,-16.56959653,-11.09054086,-8.338390249,-1.139685339,-0.372957387,-7.366494769,-9.306482146,-9.041196062,-2.309121444,-2.006981711,-8.070751415,-1.627454548,-8.40760376,-7.082062134,-4.686791605,4.336217143,-0.786967867,-6.208472717,-7.68362681,-3.018549033,-5.747626067,-38.57579763,-4.508885088,2.377118607,-2.465457878,-5.310941382,-0.386737019,0.143054465,-3.121650585,1.104295037,-2.059008006,-4.992138375,1.064499561,-0.452443102,3.783104391,3.614254792,-0.857196972,1.843511515,6.519374898,3.257741723
-29.80334545,-29.44048418,-32.55191069,-27.67819517,-32.71980425,-16.29898214,-19.04333094,-23.04627496,-18.77111314,-20.4241979,-14.15804636,-14.92172659,-12.26911057,-15.48052523,-17.06959545,-17.8404373,-12.32394848,-9.114453695,-4.284325002,-2.136941249,-8.794301469,-9.839402539,-9.990030745,-3.470462527,-3.213733609,-9.320781349,-2.583640974,-9.372672727,-7.712508357,-4.653008854,1.193090845,-1.402449574,-5.941619635,-7.836979442,-3.087063802,-6.597053219,-40.75806315,-4.528992929,2.740601032,-1.439373669,-4.360004313,-0.515987582,1.555577655,-1.130183304,2.312478631,-1.036349769,-4.222393176,1.114755678,1.252478883,5.266752952,4.916117263,0.027000684,2.595544086,7.74840658,4.172091139
-31.23180085,-31.2046949,-34.09044853,-29.09826327,-33.85090626,-18.10292506,-20.82407339,-24.5576623,-19.85312181,-21.53984823,-14.59470149,-16.65880382,-13.89612557,-16.99361864,-17.54161751,-18.4964536,-13.3832746,-9.597663398,-6.880763625,-3.925710766,-9.823742626,-9.685808311,-10.48970389,-4.21511984,-4.047473239,-10.07665123,-2.941205813,-9.715852697,-7.78219153,-3.997695988,-1.180698232,-1.902649927,-5.281508236,-7.231134515,-2.547631152,-6.781943018,-43.1965613,-4.570928911,3.21834247,-0.179537056,-2.894842174,-0.349318621,3.133139751,1.145310579,3.641366203,0.46167191,-2.791096996,1.597477724,3.084651906,6.918444958,6.592378867,1.340329404,3.623327888,9.332417677,5.386774471
-32.00001315,-32.10387998,-34.65715451,-29.38867107,-33.54629936,-19.47028693,-22.10991074,-25.30867161,-20.1677978,-22.01846795,-14.60549978,-17.76425401,-14.9548808,-17.85145373,-17.35508704,-18.53257246,-14.06461398,-9.57481344,-8.430917107,-5.255568452,-10.39072776,-8.788007471,-10.28914014,-4.234703147,-4.362353946,-10.19152389,-2.631471632,-9.36369637,-7.259449522,-2.808840377,-2.293340407,-1.999187177,-4.239391231,-5.920491369,-1.448916238,-6.246180395,-45.60662895,-4.428013623,3.817366867,1.286589859,-0.96459883,0.231861928,4.765349484,3.477108764,5.011837907,2.308042089,-0.850250917,2.50791848,4.978585598,8.671874338,8.468932018,2.911249096,4.800338158,11.06410076,6.798256331
-31.99755877,-32.01563728,-34.145123,-28.47811907,-32.07124772,-20.09076923,-22.76946364,-25.31238249,-19.72278562,-21.81512638,-14.24755554,-17.97592076,-15.38413514,-18.04189702,-16.61933615,-18.02849259,-14.28076361,-9.011752746,-8.669385281,-5.728863374,-10.51438528,-7.383130723,-9.375343958,-3.228475802,-4.110578999,-9.666524423,-1.764415878,-8.417130238,-6.307478283,-1.517371428,-2.023550174,-1.535391638,-2.934470071,-4.137338413,-0.012594512,-5.138797715,-47.58419313,-3.934288637,4.473503526,2.864395682,1.241443546,1.224101081,6.254557,5.578912464,6.284203769,4.251296578,1.287980358,3.69597601,6.802230078,10.35237893,10.26249895,4.451681574,5.905307746,12.62042058,8.179695768
-31.27999874,-31.01267549,-32.66472719,-26.54193682,-29.95600195,-19.85068369,-22.76678603,-24.69083355,-18.65942288,-20.99588067,-13.65849018,-17.27126683,-15.25639038,-17.68187478,-15.51458059,-17.11728759,-14.07217169,-8.046942337,-7.636607769,-5.182087534,-10.30059055,-5.92244926,-7.969632507,-1.019868887,-3.378796915,-8.655614983,-0.584733191,-7.113212498,-5.216790668,-0.730051688,-0.650250241,-0.546032026,-1.574482845,-2.233042481,1.440199714,-3.754927092,-49.04279975,-3.025700124,5.075791494,4.400608654,3.430442593,2.498941165,7.371613137,7.181451426,7.296352813,5.980967497,3.247724198,4.922653925,8.387310102,11.72535818,11.66536631,5.654591079,6.699042825,13.66373967,9.258255789
-30.04021886,-29.3338887,-30.51627188,-23.94972772,-27.82935785,-18.85375527,-22.16654209,-23.62186169,-17.20285777,-19.70665034,-12.98747316,-15.86453536,-14.7476448,-16.97171212,-14.23484933,-15.9406088,-13.56564855,-6.926969614,-5.676525646,-3.744948749,-9.919813384,-4.896011179,-6.443972297,2.335450577,-2.378123059,-7.424544831,0.611982411,-5.74825329,-4.28820113,-0.960651107,1.219490859,0.746883927,-0.406046523,-0.581336994,2.602011199,-2.427927308,-49.98418568,-1.756174109,5.504639282,5.711745356,5.283202448,3.843178022,7.928072067,8.105230814,7.916412398,7.217267529,4.710580749,5.943524667,9.577834033,12.57629827,12.44605246,6.299809924,7.012338928,13.95519697,9.816925295
-28.53914918,-27.30858601,-28.10674374,-21.16427763,-26.23037786,-17.37202256,-21.112021,-22.28481002,-15.59515052,-18.12872559,-12.32705989,-14.12118482,-14.07427858,-16.12582704,-12.93950103,-14.61726858,-12.90029583,-5.902528037,-3.338762633,-1.783912824,-9.553782226,-4.631598328,-5.179495475,6.506112646,-1.389424472,-6.266690582,1.57526823,-4.582387452,-3.711886706,-2.363376378,2.828807331,2.016927832,0.355580969,0.525273465,3.281934134,-1.408917654,-50.51382673,-0.269573516,5.681886804,6.632263204,6.550446003,5.027682935,7.833380722,8.304179341,8.087966827,7.791595573,5.507419946,6.582026772,10.26607853,12.78102672,12.51796678,6.316745715,6.802612407,13.43337156,9.766781702
-27.01307659,-25.2545194,-25.82689811,-18.61281911,-25.44759401,-15.74752943,-19.77570643,-20.80896871,-14.02407356,-16.42391689,-11.67383491,-12.42862832,-13.41234394,-15.29457456,-11.71607383,-13.22038319,-12.16580771,-5.140382516,-1.219868097,0.222854502,-9.345775323,-5.15362184,-4.430899103,10.92067778,-0.685863609,-5.414191131,2.163525569,-3.764826286,-3.493866061,-4.617634001,3.491892774,2.943373918,0.585228152,0.948104257,3.464530054,-0.789357841,-51.05464977,1.243544516,5.595055707,7.055937171,7.11728138,5.870055395,7.120105107,7.873748893,7.855281013,7.700944194,5.663509644,6.780460133,10.41919161,12.35411652,11.96809357,5.805260245,6.174465561,12.24040349,9.183662156
-25.59854153,-23.39195635,-23.94725997,-16.5833315,-25.44156273,-14.28441557,-18.31046568,-19.2511834,-12.5865945,-14.70458728,-10.94566393,-11.07796598,-12.8403504,-14.51821904,-10.57607469,-11.77999239,-11.36936592,-4.67977589,0.206250317,1.846457269,-9.346349564,-6.15341355,-4.243780952,14.87766203,-0.440583453,-4.968952622,2.37853693,-3.296207124,-3.457040962,-6.998069994,2.806165084,3.314747362,0.290408674,0.735377572,3.313048589,-0.483589122,-51.63395259,2.606101972,5.293895255,6.966534466,7.036051671,6.294588119,5.92931315,7.01098552,7.351208163,7.100972008,5.366796866,6.596499326,10.08048304,11.44414898,11.02107478,4.984599092,5.336464848,10.6717248,8.274849325
-24.31596896,-21.81009771,-22.56842398,-15.18180652,-25.88730655,-13.18133125,-16.82538886,-17.61671314,-11.29561831,-13.03966417,-10.04554966,-10.20585115,-12.3338602,-13.73515905,-9.486439088,-10.3146799,-10.45236802,-4.444913235,0.715076909,2.834677636,-9.493129066,-7.109176404,-4.458144336,17.70402853,-0.671344137,-4.881557705,2.346325716,-3.048700834,-3.329089364,-8.634791021,0.78387148,3.087453542,-0.390765138,0.100160446,3.097746643,-0.286604043,-52.412993,3.685795145,4.858320152,6.437708692,6.498901814,6.346225612,4.455208643,5.939925892,6.747951546,6.244764944,4.871296262,6.151403373,9.340074539,10.2760265,9.949617676,4.103188283,4.510296535,9.067278682,7.288841341
-23.09944362,-20.47881873,-21.62799479,-14.34428138,-26.30778974,-12.50976469,-15.3826557,-15.90074988,-10.11190742,-11.47197188,-8.934885818,-9.799717543,-11.80033608,-12.82748408,-8.408757011,-8.859644065,-9.352589134,-4.307875647,0.364914914,3.143047426,-9.641173496,-7.505143669,-4.795238347,18.91870924,-1.246715633,-4.991832221,2.248392106,-2.84015156,-2.881453208,-8.871356872,-2.147758759,2.369619291,-1.244965434,-0.655946075,3.08583661,0.018991693,-53.44366712,4.389207909,4.347052796,5.602239628,5.757608079,6.158717,2.880913618,4.841408714,6.201196781,5.399458905,4.400342995,5.569467024,8.302898041,9.075604478,8.98601082,3.355479147,3.85124501,7.698510337,6.425709728
-21.87339793,-19.31409943,-20.97204477,-13.91136939,-26.25799946,-12.24901162,-14.02415333,-14.14334253,-9.002234769,-10.05208344,-7.688943551,-9.769599838,-11.15227749,-11.69948725,-7.345216916,-7.491716952,-8.06873863,-4.159152556,-0.560180939,2.894299247,-9.616249469,-7.039501668,-4.973542001,18.34667268,-1.941345241,-5.100234097,2.253988963,-2.515241267,-2.04679465,-7.542342251,-5.270635435,1.359734172,-2.051888086,-1.240915081,3.442270383,0.560390776,-54.11864511,4.655496429,3.766404961,4.611720494,5.043569222,5.906316385,1.329964006,3.803204271,5.800361313,4.757088229,4.069299233,4.929532258,7.057250576,7.992966469,8.250393366,2.817101239,3.396681398,6.682457881,5.765588813
-20.63889169,-18.25922335,-20.44751589,-13.72412749,-25.49498404,-12.35114966,-12.8082579,-12.46318161,-7.984713094,-8.864767587,-6.501435011,-10.04022762,-10.3781858,-10.35034441,-6.365424746,-6.334942448,-6.702317129,-3.958752044,-1.671071736,2.282156975,-9.293541347,-5.759179142,-4.817109407,16.13861084,-2.530731124,-5.053044933,2.459028147,-2.012017459,-0.971614961,-5.074439364,-7.806828577,0.261277607,-2.654970884,-1.462159659,4.165020877,1.309582781,-54.20810711,4.446068597,3.06334692,3.588626028,4.493981158,5.732522991,-0.153847161,2.812270909,5.545769107,4.383938335,3.856850418,4.250142577,5.661718073,7.064990885,7.727930608,2.447433283,3.068686308,5.965535176,5.257238876
-19.52031597,-17.3377812,-19.97783061,-13.69862595,-24.07201881,-12.79539518,-11.83092637,-11.05595987,-7.145760207,-8.031447743,-5.633840132,-10.61365939,-9.577607177,-8.904140377,-5.600429509,-5.540596431,-5.451312828,-3.748330099,-2.618819903,1.458143194,-8.658418854,-4.052521699,-4.313345192,12.7119805,-2.882156515,-4.808431258,2.853842266,-1.38875008,0.022256012,-2.347677212,-9.174243138,-0.79111573,-3.009799701,-1.282105942,5.086369524,2.090298997,-53.58892191,3.753531921,2.152708758,2.599324087,4.118080711,5.701620517,-1.594444746,1.787020538,5.360428478,4.220749042,3.642758641,3.511925709,4.148060738,6.224307323,7.301525839,2.138552885,2.729396156,5.374105568,4.765207668
-18.75208924,-16.66391711,-19.5997902,-13.86020924,-22.32334043,-13.61128169,-11.2189915,-10.15388381,-6.627016215,-7.69177589,-5.329487064,-11.57781919,-8.947310523,-7.591531302,-5.211392578,-5.2535806,-4.557786338,-3.624092249,-3.209025532,0.467088224,-7.829709842,-2.496711089,-3.601192646,8.632069026,-3.008420031,-4.450466407,3.334294791,-0.802300219,0.556339396,-0.361953919,-9.172628029,-1.758827319,-3.187521221,-0.824611677,5.934472902,2.646226694,-52.16371545,2.627986123,0.967235286,1.650401182,3.817041476,5.783160066,-3.045258894,0.632240637,5.126918631,4.12463681,3.287472253,2.704028069,2.537150972,5.347423701,6.819078144,1.779210045,2.261103962,4.706133386,4.145279749
-18.59985078,-16.39964906,-19.4394198,-14.31740652,-20.74304745,-14.85257398,-11.09366345,-9.950380501,-6.575026175,-7.9567204,-5.718821504,-13.04696456,-8.71218105,-6.681740973,-5.336206978,-5.564963402,-4.230649162,-3.685996788,-3.447392409,-0.754576787,-7.036816561,-1.630493194,-2.903744148,4.462921328,-3.066808679,-4.155309089,3.742239738,-0.449477942,0.349521047,0.155647799,-8.048085515,-2.683781707,-3.338155699,-0.326850831,6.431663046,2.743273554,-50.26146099,1.194461468,-0.494504257,0.700692994,3.435408829,5.862670627,-4.54073862,-0.699811505,4.740398139,3.939739394,2.714746611,1.869215162,0.867879941,4.33057817,6.172178444,1.31547606,1.640395431,3.835127494,3.324974442
-19.25440348,-16.68265685,-19.64773536,-15.19709231,-19.81446766,-16.53912654,-11.52033655,-10.5305317,-7.085122765,-8.863147081,-6.764760865,-15.07024166,-9.035029349,-6.39233803,-6.038959595,-6.477913569,-4.564518844,-3.9791348,-3.513062529,-2.323650237,-6.542236184,-1.727075235,-2.426549293,0.642794513,-3.295783863,-4.118820087,3.92184382,-0.485758741,-0.653440699,-0.936344648,-6.401657211,-3.636497698,-3.628810478,-0.058571775,6.389631298,2.266540368,-48.16596071,-0.338132246,-2.135828616,-0.30392496,2.834757347,5.789670161,-6.069213459,-2.178729622,4.148911461,3.562809733,1.955509748,1.117201156,-0.794280717,3.146502647,5.344419957,0.774445837,0.960638098,2.772260144,2.346692052
-20.72366671,-17.54116312,-20.31119486,-16.55292651,-19.82983297,-18.57921054,-12.45019679,-11.8113602,-8.143861431,-10.33483,-8.25260352,-17.5336463,-9.926143458,-6.798177397,-7.26623162,-7.883822587,-5.50133778,-4.469739941,-3.670148032,-4.314222389,-6.553871028,-2.680425027,-2.280908547,-2.586428565,-3.918708339,-4.47890395,3.764673002,-0.970662259,-2.244358681,-3.115354145,-4.97883864,-4.661308932,-4.187101713,-0.239566116,5.762174961,1.264429021,-46.37374165,-1.707425081,-3.781995628,-1.400658176,1.949406414,5.42888303,-7.555771702,-3.687053291,3.384892808,2.994791019,1.157042397,0.612834218,-2.348590423,1.880488975,4.432199952,0.260673652,0.412937555,1.679265688,1.369943387
-22.77933735,-18.8487237,-21.38864466,-18.29736017,-20.77992376,-20.72447618,-13.69754739,-13.53216253,-9.60695034,-12.1714282,-9.84434907,-20.1159919,-11.20356586,-7.787038484,-8.837443122,-9.566789408,-6.835870677,-5.049843678,-4.140751173,-6.663488514,-7.135634383,-4.035786067,-2.446101035,-5.167256853,-5.038807255,-5.250057972,3.250788346,-1.839597971,-4.004653859,-5.371932196,-4.405942771,-5.734303585,-5.045910241,-0.959337863,4.665682311,-0.055444114,-45.25885878,-2.652587649,-5.220232889,-2.581606333,0.821404605,4.72006348,-8.86992487,-5.044503788,2.564650083,2.343702633,0.538797184,0.529604329,-3.665716328,0.717858583,3.615583029,-0.094969589,0.219131385,0.814603093,0.616509933
-25.00754214,-20.3521299,-22.71476101,-20.2048723,-22.37385646,-22.60530361,-14.98201722,-15.32501042,-11.23712971,-14.09386612,-11.19802448,-22.35020795,-12.53918771,-9.096268013,-10.49028902,-11.25751028,-8.27167129,-5.573773443,-5.006753392,-9.135727701,-8.16568753,-5.157023189,-2.788503349,-7.164655639,-6.575134766,-6.300573029,2.460301423,-2.915123069,-5.440940083,-6.5842575,-4.961199528,-6.750060055,-6.121556753,-2.142187589,3.342905796,-1.392514394,-44.97514485,-2.974911907,-6.250880626,-3.781209453,-0.401086069,3.711177,-9.87565403,-6.078171364,1.840593767,1.772618448,0.292755238,0.966856181,-4.634792191,-0.129669446,3.078293585,-0.197921222,0.525036077,0.428678208,0.2806081
-26.92291027,-21.73843073,-24.04165996,-21.95934824,-24.14393089,-23.81468629,-16.00007004,-16.81093517,-12.75872545,-15.80477258,-12.06686149,-23.74383961,-13.55240764,-10.3882572,-11.94333373,-12.69217443,-9.523278727,-5.932207306,-6.179690593,-11.36185479,-9.377784755,-5.495805615,-3.147411056,-8.698252977,-8.280103993,-7.401906926,1.535419255,-3.981048946,-6.172348727,-5.978411636,-6.482429079,-7.565510753,-7.255122083,-3.578198196,2.077349016,-2.463300708,-45.75863786,-2.608467835,-6.765087382,-4.898391736,-1.522083168,2.535297198,-10.46924386,-6.679099695,1.355677437,1.437923361,0.506484614,1.89552497,-5.192663146,-0.497397493,2.941721089,-0.021228585,1.333831361,0.672723875,0.460012714
-28.12393666,-22.74125264,-25.12581738,-23.25091957,-25.61227901,-24.03143767,-16.52225726,-17.71095626,-13.93475057,-17.06013412,-12.36805848,-23.93285464,-13.93791614,-11.35887087,-12.97173813,-13.67868374,-10.39608163,-6.09710548,-7.4227782,-12.93628369,-10.44057656,-4.814640171,-3.4110699,-9.86753719,-9.811664596,-8.302615277,0.642301635,-4.851718422,-6.066386781,-3.454127622,-8.425967117,-8.051935037,-8.260431086,-4.98402207,1.112006736,-3.08774746,-47.13299591,-1.645286615,-6.775878324,-5.821113114,-2.356674208,1.377464624,-10.6103734,-6.838069735,1.192901784,1.416584056,1.127072127,3.14936494,-5.34527015,-0.334053487,3.212471304,0.367150561,2.486589242,1.529624343,1.105789459
-28.44178332,-23.24489666,-25.82685514,-23.88983798,-26.46597202,-23.15397208,-16.48656071,-17.94418434,-14.64504271,-17.74129812,-12.20694249,-22.83185581,-13.58415789,-11.84970769,-13.48021963,-14.1547111,-10.83542662,-6.133295077,-8.427185921,-13.54925613,-11.07279374,-3.290837106,-3.566310093,-10.71964683,-10.84667799,-8.813405719,-0.079173054,-5.427870256,-5.285527692,0.338229001,-10.06553511,-8.135408172,-8.98142541,-6.092033042,0.577144871,-3.243701042,-48.55870411,-0.312452729,-6.406684198,-6.461108243,-2.78906111,0.412131425,-10.35085851,-6.664981688,1.330716568,1.655010717,1.958440061,4.446296741,-5.191999165,0.255031956,3.75809381,0.822196411,3.688445811,2.797623118,2.023892132
-28.00177532,-23.3238183,-26.15290333,-23.87078792,-26.64622714,-21.37076945,-16.02718905,-17.64998946,-14.9161122,-17.88076343,-11.8177595,-20.6975553,-12.62158372,-11.89595573,-13.53005855,-14.20022284,-10.93470143,-6.183108158,-8.926019556,-13.1000997,-11.15342168,-1.475929986,-3.711775815,-11.26759606,-11.19906702,-8.888462209,-0.573129493,-5.737858388,-4.239065561,4.187700786,-10.77008631,-7.833370569,-9.354892906,-6.741176556,0.453055394,-3.069684309,-49.82049129,1.080750054,-5.862715408,-6.789592538,-2.822892375,-0.264864858,-9.825695261,-6.361675276,1.640377634,1.978032451,2.716046186,5.460556415,-4.913399294,1.024293421,4.341453477,1.175488132,4.597915976,4.146092699,2.937686127
-27.17940595,-23.21326058,-26.25173467,-23.37633647,-26.32912127,-19.13548745,-15.4345532,-17.13741966,-14.9015073,-17.63713101,-11.46528441,-18.07666742,-11.39250648,-11.70695082,-13.3147622,-14.01184991,-10.87880125,-6.405164484,-8.78701483,-11.74397754,-10.7664656,-0.093254429,-4.002994375,-11.5166094,-10.88356889,-8.645065253,-0.886013592,-5.917407499,-3.433043507,6.744163132,-10.23317927,-7.248772223,-9.426745832,-6.928533398,0.583100745,-2.803236193,-50.40867833,2.225409971,-5.365279704,-6.848373693,-2.584045334,-0.665515275,-9.222752957,-6.163464923,1.913465054,2.138999101,3.119323252,5.925035279,-4.731386251,1.653549625,4.687728435,1.280585222,4.936380292,5.21026979,3.56834785
-26.46911786,-23.22061704,-26.35270526,-22.7165785,-25.8230492,-17.05576531,-15.06294635,-16.78429946,-14.82516344,-17.23807238,-11.34795193,-15.66027207,-10.34987023,-11.59049897,-13.09678461,-13.84043482,-10.86214007,-6.900772393,-8.05221695,-9.862499478,-10.17521359,0.237143438,-4.56698021,-11.49860228,-10.11465467,-8.3266122,-1.153112185,-6.151515307,-3.287772963,7.003753792,-8.58000874,-6.531321881,-9.335502645,-6.810354161,0.725008312,-2.691402364,-50.21369704,2.887420619,-5.086485624,-6.746815704,-2.290813152,-0.912368507,-8.741222631,-6.27710504,1.915807296,1.895792708,2.973335693,5.709097713,-4.857654009,1.838292982,4.558542485,1.053491374,4.572008433,5.693236118,3.71311371
-26.31239432,-23.61287097,-26.67318829,-22.2244364,-25.42170888,-15.72380533,-15.21361396,-16.91014308,-14.90735509,-16.91249079,-11.53643653,-14.08857811,-9.920018589,-11.84382235,-13.12798772,-13.91559641,-11.01636739,-7.66328021,-6.922964802,-7.965376166,-9.732713869,-0.768357699,-5.429593324,-11.29607609,-9.239068728,-8.230171643,-1.561801523,-6.608819008,-3.995999523,4.671827461,-6.319296177,-5.834392115,-9.273157012,-6.651581824,0.622745799,-2.908197063,-49.32755673,2.955181059,-5.108362655,-6.638830071,-2.198241662,-1.200869744,-8.549454946,-6.834480843,1.448234001,1.086999586,2.212146462,4.84740917,-5.44542966,1.37013268,3.813094723,0.482171889,3.548491659,5.435147943,3.290807525
-26.93977761,-24.51061807,-27.32523941,-22.13505018,-25.26355794,-15.53206385,-16.02408727,-17.66291791,-15.28368636,-16.81255392,-11.95852484,-13.76030294,-10.36629207,-12.64297577,-13.5626665,-14.36757737,-11.3722549,-8.574491648,-5.69524615,-6.555975022,-9.762033336,-2.954776939,-6.488925158,-11.03231664,-8.623210344,-8.614963923,-2.299637705,-7.387351461,-5.466624383,0.268322775,-4.159189184,-5.278787029,-9.429670468,-6.746453775,0.06972862,-3.511452692,-47.82741194,2.438628439,-5.415288539,-6.68785797,-2.535937889,-1.734810668,-8.745778704,-7.860326843,0.407664883,-0.306680831,0.913893191,3.527539634,-6.543743709,0.199973222,2.451075138,-0.381491723,2.067726321,4.449824291,2.353312655
-28.27889288,-25.82393377,-28.25774481,-22.49194579,-25.27017652,-16.54253122,-17.40453927,-18.960572,-15.94855201,-16.95807002,-12.43093714,-14.70851876,-11.6947502,-13.96747419,-14.39295616,-15.16945925,-11.85561082,-9.434053699,-4.665926427,-5.997105962,-10.43805758,-5.775135291,-7.533897443,-10.83140955,-8.536045992,-9.614629289,-3.486227321,-8.479148228,-7.364846439,-5.042737531,-2.755131365,-4.928409323,-9.932325432,-7.318633441,-1.030183624,-4.43096239,-46.13008264,1.439715936,-5.912571691,-7.023743576,-3.446312541,-2.651102435,-9.319527709,-9.255915657,-1.161566242,-2.136553517,-0.717868184,2.040824312,-8.059527681,-1.534281926,0.621366699,-1.435934119,0.434069282,2.924138429,1.065393999
-29.98379117,-27.28125989,-29.26753615,-23.1401125,-25.19964966,-18.47353271,-19.0667064,-20.52013581,-16.76178119,-17.24779287,-12.74786221,-16.60929979,-13.65440421,-15.60637318,-15.45421293,-16.14922247,-12.31466392,-10.01250644,-4.03400158,-6.413674164,-11.71155281,-8.468342497,-8.30292839,-10.77352507,-9.05814987,-11.17735569,-5.109244552,-9.759894734,-9.225162988,-9.828939193,-2.47641767,-4.775510955,-10.7939382,-8.435805932,-2.624302658,-5.492225281,-44.46805036,0.12687845,-6.44784981,-7.693018145,-4.929065166,-3.954515779,-10.15235876,-10.83078606,-3.073540929,-4.127668077,-2.424766397,0.689327746,-9.77466468,-3.549280068,-1.419717883,-2.560682983,-1.048443361,1.156853225,-0.352496008
-31.56655463,-28.52760813,-30.07395978,-23.79346866,-24.77542012,-20.7980139,-20.62216598,-21.95868599,-17.50044982,-17.50779361,-12.76757955,-18.90706595,-15.8178037,-17.22968813,-16.47875496,-17.04447225,-12.59028243,-10.14148239,-3.852383523,-7.672895129,-13.32265977,-10.33095561,-8.589398198,-10.88577819,-10.06150489,-13.07625844,-7.018854635,-11.03437784,-10.61516254,-12.86799181,-3.296005198,-4.761830834,-11.90882494,-9.987927371,-4.526918208,-6.486489247,-43.09396484,-1.312792065,-6.856898039,-8.642316756,-6.841098425,-5.508957368,-11.05114241,-12.35590457,-5.045378979,-5.960386221,-3.969049769,-0.3105874,-11.40201148,-5.496681951,-3.375383677,-3.641395688,-2.168519359,-0.524779133,-1.686964705
-32.56158365,-29.23926514,-30.41643971,-24.13634177,-23.83642125,-22.90620435,-21.70285886,-22.91761768,-17.9291804,-17.55286684,-12.45672105,-20.98856721,-17.70284849,-18.48830444,-17.17251345,-17.5760109,-12.58257986,-9.782092988,-4.041510775,-9.445072878,-14.88893836,-10.95163823,-8.327592421,-11.15601557,-11.26830916,-14.97534475,-8.959841525,-12.10503588,-11.27947056,-13.53174627,-4.830352195,-4.817514765,-13.08364473,-11.71947655,-6.466304785,-7.239744751,-42.00127572,-2.707731286,-7.010220584,-9.732196424,-8.93128844,-7.075550668,-11.78591131,-13.60700589,-6.757885791,-7.359131596,-5.176419816,-0.874189456,-12.64342561,-7.048096855,-4.977612194,-4.590777234,-2.848084982,-1.840685851,-2.784894104
-32.6827528,-29.23382406,-30.14505185,-23.94284529,-22.44562488,-24.29247266,-22.07795254,-23.17622546,-17.87830997,-17.25688761,-11.89655528,-22.37076707,-18.90874885,-19.1226241,-17.30958406,-17.54025113,-12.27938888,-9.034712715,-4.422553661,-11.31365152,-16.02490799,-10.32047534,-7.615793713,-11.5509246,-12.34299972,-16.5103594,-10.61925255,-12.81874117,-11.19938827,-11.93690128,-6.482667598,-4.879052518,-14.07940322,-13.30285479,-8.150103745,-7.660609339,-40.73330845,-3.915622537,-6.827083739,-10.75990357,-10.88394839,-8.378595059,-12.15177032,-14.4140677,-7.944626489,-8.174859102,-5.967641706,-1.060157489,-13.26554687,-7.976430629,-6.050871683,-5.36151502,-3.150612791,-2.622261842,-3.58449768
-31.91397706,-28.53028205,-29.27212707,-23.15884234,-20.89539283,-24.69998285,-21.71943614,-22.71625854,-17.29748856,-16.5949341,-11.23781966,-22.83163655,-19.21545692,-19.03418647,-16.80204796,-16.87326578,-11.75695448,-8.1121908,-4.788627353,-12.89335719,-16.46030855,-8.802817807,-6.687470172,-12.04725732,-12.99068645,-17.38366471,-11.71025644,-13.10525151,-10.57180724,-8.849565201,-7.64385485,-4.907853758,-14.67638094,-14.43652873,-9.34406731,-7.763175582,-39.23817597,-4.841564875,-6.285637753,-11.50921942,-12.39435072,-9.195703302,-12.02769407,-14.69306695,-8.467675477,-8.424324796,-6.363671147,-1.044673991,-13.16692318,-8.208250726,-6.55255129,-5.943676826,-3.249895115,-2.840588219,-4.11204302
-30.48973334,-27.32755077,-27.95977136,-21.90713047,-19.60222308,-24.1603617,-20.78639507,-21.70849474,-16.26632982,-15.64149758,-10.62800317,-22.4276721,-18.61790352,-18.29412188,-15.71909854,-15.66579351,-11.14414627,-7.265636117,-4.983819304,-13.92179381,-16.11568676,-6.978031976,-5.822992029,-12.64689627,-13.04044701,-17.43875637,-12.05321544,-12.9902537,-9.716338577,-5.375520575,-7.877598493,-4.897806678,-14.73092418,-14.93260723,-9.933086092,-7.651858492,-37.42468279,-5.423037348,-5.420462839,-11.80796278,-13.24233271,-9.430876107,-11.40295757,-14.44779029,-8.350616987,-8.272438481,-6.459155225,-1.046695386,-12.39885575,-7.827970839,-6.573933994,-6.365859636,-3.358713867,-2.601372233,-4.46176586
-28.79307264,-25.92549723,-26.45575253,-20.4333454,-18.93427159,-22.93286669,-19.54949908,-20.43570243,-14.96445939,-14.53778313,-10.15012931,-21.42032412,-17.29451729,-17.09845469,-14.26105044,-14.13527154,-10.56462435,-6.69123797,-4.938092386,-14.3067927,-15.10491356,-5.422312273,-5.242561664,-13.35884845,-12.47433348,-16.68152298,-11.61637089,-12.57020074,-8.95239881,-2.579444715,-7.024463489,-4.859565353,-14.20066413,-14.76514653,-9.947993408,-7.483138138,-35.29781004,-5.642145878,-4.305444742,-11.56649735,-13.33179738,-9.143069199,-10.38009877,-13.75977594,-7.771181254,-7.97464767,-6.393777863,-1.260398685,-11.1489737,-7.04157635,-6.310058556,-6.691717385,-3.662336033,-2.115567047,-4.765338693
-27.21212639,-24.61976413,-25.00572478,-19.01056685,-19.04304331,-21.37906353,-18.28511817,-19.1861618,-13.60980922,-13.44010358,-9.791361016,-20.14230498,-15.52468058,-15.68742543,-12.69456179,-12.55600607,-10.09302512,-6.469918047,-4.670659704,-14.11421473,-13.67197692,-4.527147857,-5.030786434,-14.16584933,-11.4002762,-15.26310303,-10.52282819,-11.97785723,-8.503572712,-1.183185271,-5.213613192,-4.807013708,-13.1509827,-14.06442017,-9.554668264,-7.41899089,-33.32160978,-5.560649557,-3.039653695,-10.80082177,-12.70554859,-8.527128829,-9.144186156,-12.76139752,-7.006104296,-7.792320845,-6.315979636,-1.80402766,-9.686853576,-6.110705,-6.005043984,-7.00303607,-4.271633621,-1.639242287,-5.149358144
-26.00957049,-23.60500981,-23.7750336,-17.843993,-19.77810565,-19.81793173,-17.17781184,-18.15633096,-12.39669056,-12.46956643,-9.459493414,-18.85863693,-13.59463024,-14.26516519,-11.2753923,-11.17904041,-9.731728599,-6.542431997,-4.260874076,-13.50499436,-12.09188033,-4.403191005,-5.108825493,-14.99453678,-9.997030083,-13.42940568,-9.015194479,-11.34368702,-8.443762665,-1.409958169,-2.779429629,-4.741541995,-11.72837288,-13.06362583,-9.002373335,-7.581073374,-31.78795625,-5.296152221,-1.726948361,-9.623790296,-11.52659767,-7.845347862,-7.904575221,-11.60132639,-6.347116338,-7.9101417,-6.349846377,-2.689614316,-8.283667847,-5.277164366,-5.882327522,-7.38481357,-5.197983543,-1.410125928,-5.703611219
-25.25257216,-22.92414423,-22.80806504,-17.01479788,-20.72201352,-18.42083149,-16.27117492,-17.39601147,-11.44574925,-11.67814684,-9.033499081,-17.68120706,-11.71718193,-12.94611228,-10.18339164,-10.16571371,-9.414053636,-6.738400782,-3.798736218,-12.66283402,-10.57759606,-4.902709189,-5.276879034,-15.7142308,-8.450947554,-11.45460593,-7.386046803,-10.76524478,-8.704915181,-3.0150906,-0.132884267,-4.643600849,-10.11503718,-12.01874562,-8.550075964,-8.019725727,-31.11352345,-5.000073335,-0.462336518,-8.211262327,-10.03050088,-7.341462252,-6.828880641,-10.41026355,-6.009497487,-8.381628703,-6.569082076,-3.832890777,-7.135334354,-4.699282314,-6.080434328,-7.899385924,-6.360655065,-1.591911848,-6.46063602
-24.82710417,-22.48393748,-22.03915253,-16.47867754,-21.34003183,-17.19048509,-15.48045472,-16.81775432,-10.78297564,-11.05008814,-8.427046169,-16.56292155,-9.992694396,-11.74568419,-9.487421923,-9.554477729,-9.039551999,-6.851093855,-3.336835684,-11.73022733,-9.222300225,-5.721929293,-5.301627985,-16.16342411,-6.902711078,-9.579487132,-5.901522455,-10.29373113,-9.131755186,-5.450782198,2.338593846,-4.472517084,-8.48040699,-11.12932707,-8.386503416,-8.698925724,-31.5226018,-4.819775569,0.6820174,-6.752167514,-8.459726316,-7.161565072,-5.991691378,-9.272535716,-6.064745147,-9.114512947,-6.977013315,-5.081542181,-6.310474987,-4.413610319,-6.610310365,-8.553268336,-7.614500434,-2.224271949,-7.378521279
-24.52705741,-22.12487445,-21.35125793,-16.1260452,-21.19483543,-16.023616,-14.66366463,-16.26434923,-10.36033448,-10.53738698,-7.643610365,-15.36973068,-8.429241431,-10.62103438,-9.15569875,-9.279090805,-8.5229747,-6.722123602,-2.865822318,-10.76806783,-7.995924066,-6.534652268,-5.01435155,-16.19166725,-5.428718529,-7.970914052,-4.742627915,-9.935454027,-9.544701963,-8.080759618,4.336354267,-4.172484084,-6.939514779,-10.48787931,-8.570320893,-9.499298203,-32.77784659,-4.835023096,1.6692671,-5.39444863,-7.00241091,-7.306616263,-5.363847245,-8.219791376,-6.429083542,-9.907627884,-7.509346819,-6.260128646,-5.746826059,-4.341536441,-7.352537957,-9.289288383,-8.790530334,-3.21032814,-8.348307809
-24.16041521,-21.70384791,-20.64782426,-15.86063895,-20.12095388,-14.81196028,-13.70804429,-15.59312583,-10.08925489,-10.09504621,-6.784897349,-13.98837656,-6.99340055,-9.527739178,-9.091764609,-9.21376402,-7.839126326,-6.313121814,-2.329976238,-9.765220016,-6.804652525,-7.114742187,-4.39301441,-15.72534161,-4.062085869,-6.718120272,-3.982967546,-9.670304329,-9.80128706,-10.37038274,5.669677831,-3.697534512,-5.54767899,-10.07481596,-9.019231943,-10.24694778,-34.50379894,-5.041922693,2.488779546,-4.223205128,-5.766054766,-7.646844826,-4.829626697,-7.230578528,-6.892612417,-10.51724301,-8.039885105,-7.204370649,-5.28556487,-4.324502514,-8.087810872,-9.994402678,-9.728212866,-4.340394524,-9.216064906
-23.64024107,-21.1664564,-19.90801808,-15.65909351,-18.29581194,-13.54021511,-12.59743066,-14.75041624,-9.884367329,-9.715745537,-6.019439593,-12.42251996,-5.672890283,-8.470567609,-9.183033458,-9.229035923,-7.041537224,-5.717665888,-1.665924787,-8.684396379,-5.569482908,-7.374346509,-3.568005767,-14.8211978,-2.827001897,-5.841595953,-3.59190019,-9.463516612,-9.819578451,-11.96604575,6.236015583,-3.027736368,-4.307216976,-9.792880448,-9.53730619,-10.75195715,-35.79298872,-5.353071363,3.150033592,-3.253742861,-4.767620324,-7.977818185,-4.237303298,-6.24305889,-7.190880123,-10.72803781,-8.402438966,-7.779600194,-4.734558053,-4.174762507,-8.555881713,-10.51869322,-10.29768426,-5.339395923,-9.810827382
-23.02003679,-20.57373827,-19.20112744,-15.58731398,-16.18071099,-12.32834473,-11.43919197,-13.80358938,-9.698537197,-9.444172802,-5.520647334,-10.82467682,-4.520396636,-7.524337909,-9.343402674,-9.240186363,-6.249941565,-5.122204803,-0.848988243,-7.513504955,-4.290870365,-7.335651948,-2.767049806,-13.66073695,-1.769066657,-5.314057944,-3.468025558,-9.276291145,-9.569487116,-12.69066231,6.001942127,-2.185201593,-3.193176823,-9.523883395,-9.877248039,-10.85115579,-35.99883559,-5.632678818,3.666154089,-2.446248969,-3.953307323,-8.099913193,-3.467193491,-5.185359081,-7.099361293,-10.41151649,-8.43148955,-7.8961291,-3.944936467,-3.735717161,-8.531530152,-10.71278548,-10.41798912,-5.934300062,-9.98053958
-22.45027018,-20.066151,-18.65306621,-15.7591368,-14.33571313,-11.3854491,-10.42556198,-12.91179413,-9.527894975,-9.353120509,-5.394058228,-9.44822092,-3.653564065,-6.810130796,-9.528556394,-9.22429736,-5.615992381,-4.733124197,0.080495333,-6.298601731,-3.075471919,-7.072721027,-2.230242508,-12.4927515,-0.963620981,-5.084784324,-3.490534816,-9.074612482,-9.058377709,-12.49783688,5.004890871,-1.248899408,-2.191923522,-9.182380042,-9.818894123,-10.45046256,-35.10480363,-5.765305606,4.033307053,-1.744221665,-3.242021914,-7.890196826,-2.472826755,-3.998329678,-6.501486082,-9.551125079,-7.998795003,-7.504397226,-2.856318857,-2.922456754,-7.887976664,-10.4669493,-10.05700117,-5.92202281,-9.623860592
-22.10657465,-19.80516072,-18.39444834,-16.27326197,-13.20987508,-10.92317982,-9.767255247,-12.27070268,-9.409257169,-9.517440377,-5.642254598,-8.559979048,-3.230219963,-6.453017051,-9.739342631,-9.215501797,-5.271849556,-4.684334266,1.022062814,-5.152625462,-2.103106896,-6.640554238,-2.107615262,-11.54784963,-0.495110849,-5.084589693,-3.552443034,-8.824084018,-8.310041761,-11.41264711,3.389953345,-0.339974742,-1.309158308,-8.746746398,-9.23406322,-9.553128795,-33.21366455,-5.705046698,4.233769391,-1.098461439,-2.552257097,-7.335719013,-1.305688402,-2.66412947,-5.427855306,-8.240736878,-7.059881334,-6.603210203,-1.516112536,-1.746381975,-6.642683307,-9.743675722,-9.236466701,-5.229002411,-8.720193259
-22.11013565,-19.9042941,-18.50412154,-17.14818164,-12.98825046,-11.05613667,-9.622421072,-12.04484245,-9.403670351,-9.982831006,-6.166927484,-8.33332669,-3.392475015,-6.529198413,-10.00509018,-9.28030778,-5.2916107,-4.988747702,1.834510959,-4.235313431,-1.565943791,-6.058114215,-2.408373114,-10.96373361,-0.427989529,-5.235571489,-3.585599857,-8.500481077,-7.369920952,-9.533313018,1.432099878,0.39692328,-0.579803015,-8.262735901,-8.130969264,-8.273187192,-31.05078606,-5.51415206,4.233896697,-0.490569055,-1.836479886,-6.535200011,-0.1050485,-1.226475763,-4.049021765,-6.657723968,-5.68134613,-5.253476466,-0.069568474,-0.317434254,-4.964449377,-8.596134497,-8.036187707,-3.939379362,-7.348028926
-22.46794494,-20.37445381,-18.96855978,-18.28527353,-13.54189171,-11.72256743,-10.03459776,-12.30700629,-9.570886688,-10.7383962,-6.810396907,-8.766267295,-4.197994993,-7.026506193,-10.35519793,-9.483195087,-5.675893346,-5.538179024,2.380351344,-3.701899115,-1.593388374,-5.339600901,-3.010427779,-10.74622447,-0.773136825,-5.459133914,-3.57313758,-8.104912265,-6.324972189,-7.075185575,-0.486102722,0.824344374,-0.062259828,-7.818687359,-6.661087633,-6.825418493,-29.5413046,-5.348326896,3.994754788,0.061890822,-1.09831828,-5.65835765,0.951592351,0.21379938,-2.617416198,-5.018964427,-4.037210251,-3.578382485,1.290627479,1.183804373,-3.133190776,-7.158819217,-6.584400409,-2.27704673,-5.679822334
-23.07714062,-21.12306262,-19.68781769,-19.49553486,-14.52155521,-12.69272292,-10.92425409,-13.02356307,-9.955319795,-11.72095535,-7.427016115,-9.679711544,-5.58164226,-7.845969405,-10.80671774,-9.863610844,-6.356591353,-6.148881833,2.573121159,-3.643760478,-2.189826069,-4.543052006,-3.715063664,-10.78445676,-1.463453918,-5.677310823,-3.53872677,-7.671426677,-5.313360196,-4.407273073,-1.937399496,0.85357696,0.197147217,-7.505487487,-5.084351027,-5.487848095,-29.31442052,-5.384700932,3.497172584,0.523506657,-0.378923043,-4.883068248,1.696607524,1.511452685,-1.397004478,-3.543111459,-2.384379708,-1.76972854,2.378971445,2.54275682,-1.477471704,-5.621237242,-5.053223757,-0.558038231,-3.960215783
-23.7781824,-21.99602583,-20.51806463,-20.57007336,-15.54208898,-13.65755273,-12.12644628,-14.07988417,-10.57834561,-12.83674386,-7.944123577,-10.78826709,-7.353538513,-8.835948013,-11.36066008,-10.4289949,-7.229706904,-6.650879954,2.393256372,-4.050034831,-3.228226639,-3.818339545,-4.344375883,-10.92332625,-2.363220613,-5.828381875,-3.530651342,-7.276972509,-4.522982815,-2.05000151,-2.580718572,0.466226436,0.180461536,-7.379126088,-3.707731867,-4.540308815,-30.77226465,-5.74048182,2.754012212,0.854337081,0.253392959,-4.34463718,2.016656867,2.504079413,-0.597190731,-2.420307742,-1.005854235,-0.074435572,3.058413066,3.552225241,-0.29898798,-4.195868896,-3.643667366,0.878680032,-2.469394231
-24.42346888,-22.83498111,-21.32299482,-21.36057108,-16.36085437,-14.35419423,-13.44653764,-15.3239465,-11.43439328,-13.98747593,-8.385889502,-11.81140426,-9.237691998,-9.844207492,-12.00321553,-11.15902968,-8.195939763,-6.969053416,1.879876611,-4.800453809,-4.489154755,-3.404620011,-4.825305925,-11.05126101,-3.305017902,-5.887888591,-3.609502874,-7.035491301,-4.156095237,-0.589890376,-2.299750409,-0.278078486,-0.094904775,-7.447301083,-2.819256899,-4.202653918,-33.66141251,-6.403914252,1.817902054,1.027496231,0.722234013,-4.106916238,1.880317072,3.050667365,-0.325115606,-1.786706978,-0.14614978,1.24607381,3.261536568,4.050454424,0.202275045,-3.068833519,-2.551608385,1.751170611,-1.46656719
-24.92814656,-23.52494868,-22.01264168,-21.83037282,-16.9707496,-14.67390373,-14.71284575,-16.60754422,-12.48256648,-15.08496538,-8.840970831,-12.57494704,-10.9372517,-10.75944628,-12.70451296,-12.00749365,-9.183021919,-7.159450902,1.100394151,-5.685197394,-5.72961201,-3.563018742,-5.21970412,-11.16004592,-4.135172835,-5.877727046,-3.834898106,-7.070954842,-4.363864098,-0.514513122,-1.283847256,-1.252761105,-0.576503006,-7.675030118,-2.62215266,-4.577398922,-37.28206867,-7.217764151,0.775356838,1.036994958,0.958856966,-4.165291434,1.335337033,3.073989345,-0.569633577,-1.70470137,0.057274453,1.976922388,2.994022474,3.950634041,-0.024289135,-2.359017892,-1.925231586,1.898841519,-1.131694906
-25.27903184,-24.01576745,-22.55254737,-22.05208586,-17.56485135,-14.6972995,-15.80359605,-17.80473258,-13.63238892,-16.04852252,-9.393556077,-13.05641805,-12.20148196,-11.52838693,-13.41016195,-12.90050547,-10.14383057,-7.377474154,0.121009037,-6.456293466,-6.756290263,-4.459408314,-5.683228081,-11.34013402,-4.751655892,-5.855844489,-4.242572036,-7.469854211,-5.172105297,-2.011148253,-0.020586415,-2.2915396,-1.190785903,-7.996182789,-3.179813828,-5.602914433,-40.55703003,-7.916749519,-0.267753714,0.894503751,0.915075505,-4.465628284,0.49205744,2.594167503,-1.21583168,-2.148801962,-0.373399029,2.018374375,2.325718573,3.264261231,-0.868547998,-2.099816599,-1.820891034,1.31718422,-1.522820008
-25.50942472,-24.30887927,-22.94327602,-22.1557596,-18.39647001,-14.65704327,-16.65037185,-18.8129496,-14.74026121,-16.79655874,-10.05470656,-13.3697432,-12.88671634,-12.15049635,-14.03826078,-13.73671913,-11.03516026,-7.791838665,-1.001956923,-6.890490795,-7.470901694,-6.04972483,-6.369630513,-11.712302,-5.12260053,-5.89272606,-4.823705575,-8.228630037,-6.428970875,-4.822540737,0.837439192,-3.224037651,-1.855266419,-8.335831724,-4.396269809,-7.054359921,-42.40054528,-8.212933782,-1.208807474,0.623765262,0.581337753,-4.928256835,-0.507720024,1.72986431,-2.086873317,-3.001768793,-1.262041742,1.424488819,1.363889593,2.101635556,-2.089870671,-2.229431592,-2.18008569,0.155272473,-2.552237814
-25.64589361,-24.41431766,-23.17830263,-22.24132879,-19.59205913,-14.82476737,-17.21708913,-19.53767189,-15.61581975,-17.22995199,-10.71412933,-13.68559576,-12.98095251,-12.64087886,-14.47589216,-14.38269428,-11.79057308,-8.492937673,-2.220741422,-6.850542556,-7.882855719,-8.035436896,-7.334470159,-12.33268016,-5.282108316,-6.043677057,-5.516868487,-9.22859928,-7.813907342,-8.247512895,0.675699724,-3.922842319,-2.497220348,-8.625992331,-6.027832385,-8.585271615,-42.55566391,-7.915387739,-1.97970374,0.247136381,-0.013495832,-5.471175586,-1.521647155,0.679141198,-2.989347814,-4.061303827,-2.315119428,0.41260626,0.237758681,0.658396714,-3.377373973,-2.601310014,-2.832408315,-1.318879601,-3.992360946
-25.65275623,-24.30693866,-23.20206994,-22.29973737,-21.00871948,-15.36136323,-17.46692719,-19.86922984,-16.03946508,-17.22363778,-11.14259011,-14.11686964,-12.58262925,-12.98640047,-14.58075292,-14.67466793,-12.29706463,-9.416709778,-3.46636475,-6.317884439,-8.079506319,-9.906734705,-8.46857364,-13.10434508,-5.301496065,-6.315174906,-6.20186295,-10.23974892,-8.905748308,-11.29678193,-0.863327264,-4.329190739,-3.060972623,-8.808357698,-7.721528115,-9.798432934,-41.09718994,-7.007937773,-2.554441108,-0.212746838,-0.798229907,-6.009754395,-2.416524513,-0.315270566,-3.744646035,-5.062393267,-3.183228932,-0.671036967,-0.904002236,-0.804115886,-4.414599972,-3.007724245,-3.520006304,-2.771813842,-5.51356384
-25.42491329,-23.91220811,-22.90523988,-22.19436091,-22.2320291,-16.22953069,-17.35850279,-19.69549697,-15.8108896,-16.65108022,-11.06437164,-14.64908195,-11.86476627,-13.13520453,-14.21210949,-14.45058746,-12.39622325,-10.32753051,-4.608040916,-5.377989144,-8.165599386,-11.07467618,-9.4956817,-13.74278458,-5.248846818,-6.642800461,-6.705975308,-10.95946542,-9.293859103,-12.97414015,-3.708808707,-4.450522058,-3.494474421,-8.82953668,-9.078835618,-10.33734943,-38.45610449,-5.658939475,-2.940267066,-0.718764751,-1.650556402,-6.443930805,-3.081847106,-1.025040286,-4.215878875,-5.727966362,-3.553988086,-1.441598466,-1.907018892,-2.008014448,-4.950326216,-3.220388752,-3.95677752,-3.87908347,-6.753545003
-24.83084447,-23.1315116,-22.15977693,-21.71135334,-22.71873385,-17.18875296,-16.86561273,-18.94263501,-14.81543745,-15.43218719,-10.26912261,-15.13604306,-11.02205168,-13.01242903,-13.27926063,-13.59946785,-11.93093262,-10.89407286,-5.450695403,-4.206596403,-8.218019081,-11.0637713,-10.05876764,-13.84094081,-5.164823363,-6.904457475,-6.839410545,-11.09535152,-8.711831214,-12.5986645,-7.342755033,-4.354706085,-3.746173808,-8.638549998,-9.743689274,-9.975480757,-35.59634874,-4.165431023,-3.173975344,-1.216185403,-2.413664231,-6.657135947,-3.442087564,-1.29161135,-4.322668367,-5.832769057,-3.233720979,-1.581268966,-2.62376685,-2.712280059,-4.851357212,-3.04256928,-3.904265105,-4.387664823,-7.397892239
-23.78523346,-21.90113561,-20.88137663,-20.65940272,-22.0233442,-17.87620537,-16.00481329,-17.61957914,-13.07692285,-13.58557976,-8.716631775,-15.35442336,-10.21742579,-12.5568435,-11.78826006,-12.1110789,-10.81187731,-10.81555531,-5.765773259,-3.030118006,-8.265656049,-9.689426467,-9.860132725,-13.00753062,-5.057633404,-6.960589018,-6.45218035,-10.46040193,-7.138479415,-10.05210374,-10.92377749,-4.142419718,-3.767363774,-8.199321451,-9.492858952,-8.681689441,-33.08749028,-2.841636678,-3.303356116,-1.629212295,-2.922520629,-6.527951128,-3.455343373,-1.062286592,-4.040872934,-5.26142978,-2.199796876,-0.935715519,-2.93194845,-2.755564165,-4.119045335,-2.355575347,-3.238957552,-4.157200445,-7.254543915
-22.32652384,-20.25877574,-19.10099662,-18.98413157,-20.02783982,-17.96381653,-14.87193386,-15.86366685,-10.78624627,-11.26786023,-6.593996272,-15.11571242,-9.560010763,-11.77582049,-9.874949244,-10.11597226,-9.076826239,-9.950597168,-5.35784874,-2.058307979,-8.294497764,-7.151056897,-8.794209355,-11.0146593,-4.912432473,-6.705873059,-5.488196324,-9.046003243,-4.824924108,-5.859162522,-13.52451495,-3.911102234,-3.518427789,-7.502890236,-8.298454447,-6.633679496,-31.2672341,-1.912766757,-3.363265545,-1.864898234,-3.035671749,-5.959398248,-3.129761616,-0.405984348,-3.405778635,-4.054541404,-0.612650358,0.432999802,-2.767772384,-2.102614717,-2.887016786,-1.163999095,-1.995764399,-3.196851553,-6.311820554
-20.64999381,-18.38136252,-17.00126436,-16.83989192,-17.06035978,-17.30259146,-13.64908044,-13.94458284,-8.285935912,-8.775084964,-4.293714855,-14.37093268,-9.095575528,-10.77581053,-7.801770993,-7.885217132,-6.926372189,-8.40001247,-4.156555597,-1.447565415,-8.279575362,-3.995197025,-7.019742796,-7.91680436,-4.720995731,-6.118127356,-4.02205063,-7.049401749,-2.236654389,-1.042308601,-14.43833763,-3.73693134,-2.989080329,-6.582024357,-6.354826298,-4.180271289,-30.36259485,-1.441980811,-3.372971091,-1.841595987,-2.676790585,-4.922652449,-2.536269989,0.507417474,-2.508085259,-2.410432675,1.223988336,2.26309473,-2.148044153,-0.85622725,-1.384164678,0.396566128,-0.363854453,-1.656093919,-4.740633757
-19.07170708,-16.56720663,-14.89640714,-14.5768857,-13.82615253,-15.99636648,-12.56519187,-12.21108424,-5.997314752,-6.488516699,-2.307139816,-13.25326593,-8.812298669,-9.747158804,-5.906765388,-5.77824614,-4.705813593,-6.498285852,-2.28252363,-1.26285025,-8.216881735,-0.956277553,-4.936594212,-4.079679355,-4.503206407,-5.28148329,-2.26682599,-4.83775018,0.076568608,3.192775876,-13.41710401,-3.655651562,-2.216428306,-5.524109261,-4.045853543,-1.759287306,-30.1333451,-1.326467302,-3.334722343,-1.517923521,-1.86527313,-3.491968482,-1.794620808,1.459664684,-1.473719175,-0.635200079,2.943179469,4.168872157,-1.170178873,0.770422279,0.127543457,2.090716844,1.364181241,0.219763783,-2.848333818
-17.9369979,-15.16248225,-13.16105615,-12.64480735,-11.18647908,-14.38084046,-11.8322095,-11.00402122,-4.316079974,-4.781203821,-1.067784254,-12.04676862,-8.666356913,-8.915243986,-4.517987747,-4.155156802,-2.82298734,-4.706306058,-0.052909157,-1.457420863,-8.137336875,1.270323342,-3.059816752,-0.082127236,-4.304056518,-4.366987324,-0.531499647,-2.851487505,1.64222375,5.825372443,-10.75771936,-3.656471268,-1.293922973,-4.457347835,-1.854038964,0.21287049,-30.28584236,-1.368211993,-3.23069936,-0.912074586,-0.72125765,-1.850797539,-1.054269877,2.244390193,-0.442971198,0.931681583,4.208360108,5.755091273,0.0013614,2.495488667,1.406335865,3.624382542,2.869700578,2.132485718,-1.012722265
-17.49896956,-14.45712425,-12.12190212,-11.44450652,-9.863086861,-12.89785107,-11.57198555,-10.55229994,-3.506638362,-3.917577518,-0.808849993,-11.08227564,-8.599457151,-8.463846121,-3.862507263,-3.278585874,-1.628828593,-3.444050519,2.083653684,-1.897390848,-8.097331274,2.248287082,-1.839210427,3.457633564,-4.182955581,-3.579080909,0.857473939,-1.479332858,2.202803102,6.336620899,-7.206715566,-3.692357217,-0.357881069,-3.522988102,-0.240673303,1.437770778,-30.58629739,-1.364876906,-3.032118077,-0.11027371,0.557409298,-0.262669923,-0.460689042,2.720094518,0.45571356,2.00840586,4.791521795,6.727957208,1.170550679,4.033626989,2.278996665,4.717772081,3.891858189,3.793093334,0.412309222
-17.8159805,-14.58196486,-11.95347333,-11.18687189,-10.16934408,-11.92639232,-11.76754347,-10.89414004,-3.62880835,-3.975341828,-1.482246086,-10.6068371,-8.553088882,-8.465575545,-4.000726535,-3.236920174,-1.305311434,-2.936318603,3.669232341,-2.381093566,-8.147465139,1.923756878,-1.5015671,6.071833857,-4.1850848,-3.088926231,1.644585538,-0.951355788,1.778156216,4.839645273,-3.703905279,-3.69001855,0.446459162,-2.835663606,0.482474516,1.800785271,-31.13613485,-1.200861554,-2.704975091,0.750654252,1.73968914,0.990490252,-0.114459263,2.840841249,1.132951666,2.447705483,4.625177803,6.973712623,2.165345958,5.165936258,2.673421515,5.188256114,4.295823819,4.985941159,1.187353678
-18.71772873,-15.4535878,-12.62101163,-11.81594456,-11.89844217,-11.64227639,-12.26446604,-11.86249438,-4.526760289,-4.820802204,-2.768987226,-10.68229292,-8.48043579,-8.854250188,-4.807988747,-3.919498967,-1.798791871,-3.124989225,4.37752209,-2.681308989,-8.299016564,0.614767037,-1.963245356,7.583018509,-4.309416619,-2.977472562,1.717671541,-1.280377603,0.638630463,1.987007164,-1.082377432,-3.571804662,0.998809167,-2.442997565,0.242257618,1.387063702,-32.24865451,-0.892746262,-2.214541222,1.519527625,2.617480065,1.690790419,-0.043060399,2.655334148,1.555235851,2.266126812,3.812280506,6.579123971,2.883807474,5.783357598,2.620617483,4.995940185,4.101100947,5.605341441,1.232602914
-19.85227888,-16.7920597,-13.88972803,-13.0265777,-14.40899925,-11.95105441,-12.81916603,-13.13651391,-5.879490939,-6.148119473,-4.186165548,-11.15134986,-8.346907023,-9.441997579,-6.012911582,-5.054586272,-2.82559402,-3.686016968,4.122912245,-2.617654505,-8.506363434,-1.114696095,-2.851868089,8.128246091,-4.500458848,-3.210584355,1.136953077,-2.268525768,-0.795825763,-1.2760482,0.186660342,-3.277270938,1.243131068,-2.312897969,-0.779095526,0.434692912,-33.88140013,-0.557855904,-1.537398205,2.075872019,3.060304777,1.754319858,-0.187345129,2.283525743,1.753796936,1.630572389,2.58867764,5.785519286,3.315587506,5.899417482,2.238941434,4.254186442,3.464137449,5.6689771,0.634642806
-20.81113581,-18.2098268,-15.40492228,-14.38598273,-16.87487935,-12.54122251,-13.19280405,-14.35159349,-7.306631998,-7.579533744,-5.255081981,-11.70212667,-8.135538708,-9.993345833,-7.289686442,-6.301006729,-3.956103591,-4.156246598,3.09958142,-2.111828816,-8.677086555,-2.65922091,-3.646465714,8.067853569,-4.660123916,-3.654501187,0.116770671,-3.579220182,-2.095676813,-4.042750862,0.133870477,-2.775771587,1.210807942,-2.341774963,-2.197849483,-0.743058061,-35.99172233,-0.33489309,-0.672694551,2.367296273,3.048631791,1.255866978,-0.42508195,1.866672223,1.808000277,0.797811497,1.250849103,4.898228142,3.530870762,5.626686808,1.698131249,3.203231456,2.623848708,5.303093665,-0.386474377
-21.28422117,-19.34772803,-16.8147326,-15.50453117,-18.60438932,-13.02892242,-13.24968476,-15.22939591,-8.492754795,-8.787427286,-5.664004108,-12.0022677,-7.855972889,-10.32402734,-8.366597432,-7.364905079,-4.759018544,-4.120674667,1.722072832,-1.229119737,-8.715402389,-3.580410494,-3.878169906,7.810899801,-4.686077447,-4.133924174,-1.050094985,-4.852529222,-2.953496082,-5.731799862,-0.756993794,-2.083782129,1.002688664,-2.39603211,-3.549292919,-1.85035259,-38.16943051,-0.296957399,0.340866238,2.418638922,2.669439317,0.402195146,-0.6214523,1.514442727,1.8087907,0.026675987,0.074844509,4.184511754,3.636338913,5.123464169,1.170877087,2.138182956,1.826910291,4.697996923,-1.548169614
-21.16985511,-19.99521866,-17.8849357,-16.17400681,-19.28055566,-13.11843906,-13.00681564,-15.6676587,-9.273526355,-9.584928506,-5.360031118,-11.83757629,-7.547975539,-10.37041575,-9.105597674,-8.087811278,-4.949474178,-3.382199546,0.479799875,-0.188546646,-8.577294806,-3.728067684,-3.308214986,7.62948119,-4.523484256,-4.504679784,-2.090610465,-5.816435003,-3.258681633,-6.209780222,-1.757685884,-1.277185929,0.751912509,-2.371799826,-4.433482812,-2.691581298,-39.58389604,-0.401546959,1.410105147,2.313619282,2.079252208,-0.536778289,-0.677257876,1.281556527,1.829314019,-0.491399293,-0.739293052,3.80783099,3.723669331,4.538599718,0.797818886,1.323155128,1.269253992,4.053995021,-2.578162813
-20.61142278,-20.15491264,-18.56575189,-16.43697403,-19.04434502,-12.73502647,-12.62999995,-15.76447413,-9.665690012,-9.971044016,-4.550889178,-11.21179504,-7.278474209,-10.21678078,-9.53401661,-8.47973704,-4.478988611,-2.040276397,-0.230053094,0.67700338,-8.306381151,-3.238536923,-2.015195854,7.552863315,-4.201180572,-4.702839239,-2.822188012,-6.349380176,-3.088531869,-5.735527437,-2.171800485,-0.484031189,0.578743761,-2.232467572,-4.629395085,-3.200487749,-39.85643438,-0.494104802,2.394271259,2.157202001,1.455175061,-1.315602815,-0.573584196,1.154723393,1.899189655,-0.673708151,-1.099783762,3.804624604,3.82464765,3.968711933,0.661391878,0.933490486,1.061789145,3.536509315,-3.265130478
-19.94168064,-20.03182622,-18.98859671,-16.55481764,-18.38829218,-12.06258454,-12.37343696,-15.76675464,-9.834548758,-10.10815545,-3.613986936,-10.36280661,-7.134332389,-10.06195221,-9.812875219,-8.694115249,-3.548521278,-0.460487704,-0.234988198,1.004343012,-8.035910902,-2.437862366,-0.37012255,7.367872445,-3.837674795,-4.76387769,-3.194098684,-6.489510479,-2.641517557,-4.773251543,-1.590997047,0.135751304,0.543804028,-2.02691611,-4.149578053,-3.425081991,-38.76812297,-0.376705047,3.122637706,2.029950264,0.941091335,-1.787835375,-0.38867111,1.064586115,1.99270297,-0.55152613,-1.026222663,4.100259501,3.887315733,3.43551844,0.769102272,1.022494625,1.219528079,3.23751914,-3.491598922
-19.54586747,-19.93949066,-19.39408632,-16.87438246,-17.90075716,-11.46316489,-12.47523512,-15.95688709,-10.0057706,-10.23722849,-2.942004672,-9.677985061,-7.208950967,-10.13234722,-10.15215561,-8.944278802,-2.535321785,0.855607771,0.361129223,0.501536546,-7.954213824,-1.68698797,1.093414137,6.721287728,-3.613830581,-4.800679178,-3.279870472,-6.388680848,-2.144800236,-3.75821283,-0.042273285,0.418223637,0.624727058,-1.872464106,-3.218169867,-3.482541461,-36.41653718,0.084148836,3.427732739,1.948163927,0.60808834,-1.941125646,-0.272935257,0.924495774,2.045079251,-0.23490598,-0.617308763,4.563846185,3.794462111,2.89544393,1.05927958,1.511986586,1.684038287,3.156474437,-3.246056815
-19.71153392,-20.16926399,-20.02005219,-17.6656238,-17.99276519,-11.33111381,-13.0599537,-16.53066123,-10.36297985,-10.57725962,-2.801961865,-9.549495078,-7.575263657,-10.58426878,-10.71504501,-9.405390569,-1.851330935,1.462369855,1.23028544,-0.965284466,-8.238489573,-1.233050487,1.876732636,5.286355688,-3.719571004,-4.944826971,-3.220307434,-6.229055272,-1.768605113,-2.92384321,2.030555645,0.235843582,0.729509547,-1.902822724,-2.181804324,-3.493490068,-33.5086954,0.877826037,3.195841173,1.853907674,0.448586022,-1.881827509,-0.401802045,0.657603202,1.980281639,0.139691798,-0.015402416,5.062516991,3.408488487,2.271884079,1.421200645,2.232268229,2.353679445,3.215677239,-2.601782176
-20.51961821,-20.87525226,-20.9980293,-18.99679266,-18.71782193,-11.93420972,-14.08888371,-17.51527037,-10.97364094,-11.23846254,-3.250500398,-10.22847537,-8.262121569,-11.43458878,-11.54686896,-10.14310045,-1.795082431,1.135016551,1.950685004,-3.307459771,-8.980632545,-1.138744618,1.693849464,2.92177529,-4.286185356,-5.287525902,-3.158802123,-6.150537067,-1.586137774,-2.260828295,3.935703072,-0.464183574,0.734187605,-2.211984898,-1.389805948,-3.532413769,-30.89916229,1.821949873,2.40350442,1.638508122,0.390027689,-1.777106429,-0.916238251,0.22012388,1.741358395,0.457156614,0.6273278,5.493586529,2.625077582,1.495572463,1.722775658,2.985326045,3.107181425,3.291476374,-1.687153458
-21.81476198,-22.00955423,-22.29684514,-20.68934118,-19.75981989,-13.30423345,-15.37187776,-18.75548731,-11.76617077,-12.18304678,-4.12876278,-11.72663679,-9.241732832,-12.5480346,-12.55210299,-11.08652507,-2.450093464,-0.052182263,2.160073819,-6.211311299,-10.14202505,-1.303237827,0.566800726,-0.240270163,-5.336282406,-5.840159211,-3.189949664,-6.208985803,-1.584416122,-1.608589604,4.975837329,-1.645083013,0.527871887,-2.807675206,-1.082776316,-3.606985793,-29.56143193,2.608776743,1.133761487,1.182607387,0.325467253,-1.779905665,-1.869871966,-0.385901008,1.315539648,0.648871886,1.176648536,5.789708519,1.425574658,0.54103324,1.841044533,3.59105025,3.818371658,3.252051951,-0.667922095
-23.2736201,-23.34192603,-23.73420442,-22.38250641,-20.59930269,-15.22716353,-16.63855753,-19.97486415,-12.56925429,-13.25018962,-5.149055548,-13.80738542,-10.4308913,-13.68895314,-13.53412198,-12.06531523,-3.663091261,-1.75735967,1.679597642,-9.211248816,-11.55531044,-1.555190028,-1.190841176,-3.813915494,-6.771703443,-6.528058372,-3.335174219,-6.378217919,-1.71382835,-0.827055465,4.682198642,-3.181438531,0.057938812,-3.600614777,-1.333666418,-3.672621419,-29.93984869,2.923638626,-0.432275312,0.408428193,0.154984649,-1.969722592,-3.209647273,-1.126203223,0.737807448,0.687320705,1.520008596,5.895637123,-0.104189956,-0.562725975,1.687552645,3.918398445,4.356262521,2.9938018,0.270810855
-24.53872155,-24.55539158,-25.05318858,-23.68044125,-20.77493963,-17.33182624,-17.64406958,-20.89162232,-13.19522126,-14.22638834,-6.021054101,-16.07578385,-11.71438085,-14.61798537,-14.28176188,-12.89038262,-5.112588622,-3.507527345,0.561732267,-11.805987,-12.97676468,-1.773822497,-3.102476086,-7.271029456,-8.398796961,-7.228402443,-3.561230798,-6.595694396,-1.948519616,0.04048521,2.963606848,-4.882328817,-0.649524477,-4.437880609,-2.056555982,-3.678619767,-31.74716066,2.576578876,-2.059899057,-0.682834672,-0.189553758,-2.331589375,-4.793095352,-1.954371322,0.073831219,0.565273377,1.563862702,5.745233514,-1.795054077,-1.741968653,1.225813593,3.898301541,4.588091246,2.464407168,0.943142493
-25.3591253,-25.36824358,-26.02582356,-24.31075513,-20.12009398,-19.23002642,-18.25843587,-21.33370108,-13.52298353,-14.9312083,-6.562346228,-18.11721662,-12.97409571,-15.18825474,-14.65845665,-13.43551361,-6.435060089,-4.877795308,-0.957520676,-13.59073054,-14.17035733,-1.977168155,-4.705107007,-10.10179508,-9.989024669,-7.82917209,-3.826676895,-6.817557916,-2.31882743,0.706867267,0.114786353,-6.54227192,-1.505426077,-5.161460938,-3.066322686,-3.611406461,-34.39233989,1.594764744,-3.526395269,-2.005702205,-0.735283106,-2.778054933,-6.429092558,-2.826844299,-0.605394459,0.275185425,1.236580917,5.25748137,-3.43897753,-2.898236369,0.478457952,3.514022017,4.391512336,1.670700227,1.184097162
-25.68360446,-25.63855378,-26.54100096,-24.23259224,-18.86801272,-20.6584881,-18.50514618,-21.30560832,-13.55256601,-15.28471432,-6.760009963,-19.63580414,-14.11929907,-15.40332844,-14.66010843,-13.69015875,-7.355939381,-5.638241065,-2.568246753,-14.36641085,-14.98482179,-2.329368165,-5.705382283,-11.96244776,-11.34876628,-8.277503173,-4.122776448,-7.055900255,-2.903397067,0.725551382,-3.30423934,-7.988251561,-2.387452614,-5.67382066,-4.163664097,-3.519319295,-36.73410469,0.230856572,-4.682377431,-3.408673871,-1.465856015,-3.19932416,-7.932294467,-3.714068723,-1.250530983,-0.205763946,0.49302152,4.351259467,-4.849978803,-3.943762954,-0.480285446,2.781478037,3.677199615,0.667123419,0.871811345
-25.66560452,-25.41068537,-26.64121257,-23.64955255,-17.56911198,-21.56100233,-18.53828714,-20.98254356,-13.40503503,-15.32833944,-6.749323899,-20.54051899,-15.10513122,-15.40858317,-14.4164557,-13.75558846,-7.781332222,-5.818101827,-4.014343013,-14.1972625,-15.40066793,-3.059880074,-6.065158985,-12.7594928,-12.37566357,-8.602212005,-4.492752055,-7.381673212,-3.783678621,-0.313733153,-6.660639655,-9.123106623,-3.183991524,-5.980846973,-5.205631921,-3.507054495,-37.84409616,-1.126434038,-5.490272928,-4.720972607,-2.334513628,-3.520632975,-9.170061342,-4.60070423,-1.851514029,-0.907668675,-0.667382637,2.990038082,-5.915644168,-4.824267357,-1.544299746,1.740925524,2.424282058,-0.461225874,-0.041631873
-25.57914917,-24.88096381,-26.49251965,-22.91879003,-16.85713171,-22.06692941,-18.56202719,-20.62683727,-13.26295391,-15.19289042,-6.728094687,-20.93821611,-15.9266329,-15.41561294,-14.13174525,-13.78913723,-7.80920569,-5.663320714,-5.179087275,-13.37911819,-15.52194951,-4.337189102,-5.980879287,-12.64665982,-13.07917406,-8.897518444,-5.01538115,-7.887618736,-4.975299335,-2.558454132,-9.437903724,-9.949102995,-3.834716588,-6.190892113,-6.133470903,-3.691174524,-37.39524094,-2.100619787,-6.024559245,-5.80326624,-3.279101251,-3.734432205,-10.08415207,-5.473307588,-2.43270019,-1.840985277,-2.173744126,1.239317208,-6.616279097,-5.520065882,-2.597520441,0.463694561,0.714599051,-1.612265931,-1.496019286
