F3,F1,Fz,F2,F4,FFC5h,FFC3h,FFC1h,FFC2h,FFC4h,FFC6h,FC5,FC3,FC1,FCz,FC2,FC4,FC6,FTT7h,FCC5h,FCC3h,FCC6h,FTT8h,C5,C3,C1,Cz,C2,C4,C6,TTP7h,CCP5h,CCP3h,CCP1h,CCP2h,CCP4h,CCP6h,TTP8h,CP5,CP3,CP1,CPz,CPP5h,CPP3h,CPP1h,CPP2h,CPP4h,CPP6h,P3,P1,Pz,P2,P4,PPO1h,PPO2h
-39.516069974847134,-35.1277899754794,-30.566353948892377,-28.026577124068115,-26.32999515340742,-26.110888527491777,-30.198480431953197,-29.54632328297404,-25.970463082317064,-19.634701216211813,-16.558677576493274,-24.826439459934992,-21.356802467931555,-23.582447601543215,-24.81952469134359,-24.351310917222833,-16.08415224517331,-7.6260086931473685,-15.55543565197,-12.91817572582851,-21.592167026942164,-16.909350047536456,-7.9750086625739245,-10.121329336958608,-15.954224094566625,-22.140410181802718,-27.11360134313625,-24.551855556641737,-18.188875731223092,-7.629458754752713,-7.602717674000727,-30.486050624375427,-10.31988631982094,-21.266192692912167,-28.010822934330147,-21.283245829850532,-52.287004260706794,-12.892980043602265,-12.218223652246076,-16.01356997580355,-18.82951734065931,-6.14501149657409,-7.295047675391659,-10.199531828830718,-20.886100560186815,-21.924400358016715,-17.813984422608442,-13.55505965238404,-4.16230212119199,-5.314176264403282,-18.63445273349725,-17.5998311327539,-14.192360327183874,-21.453770295935037,0.8786701681410678
-37.34006064006617,-33.508966522794516,-29.06186073195086,-26.15099226817269,-24.895506833566735,-23.903651587776128,-28.8452635712984,-28.41933186467263,-24.432422632908118,-17.59612609169643,-14.690474227205975,-22.453620472498674,-20.149899914876432,-22.04965218325076,-23.471294480874203,-23.083749486334035,-14.25120097853342,-6.415762308245357,-11.354632459060447,-9.817505053455845,-20.466953724280373,-15.448503650829995,-7.046148245810346,-6.5018225858781085,-14.361129902056033,-21.364261920884193,-26.665385986756352,-23.917991447602827,-17.242829355137935,-7.439100280545225,-2.20908533390398,-28.200439581585208,-9.073313463451244,-21.33805652888305,-28.51502864057436,-22.013653886883354,-50.54035889505574,-13.402698356272797,-9.379621029471819,-14.809620754722982,-17.99747308150137,-6.448483806524278,-5.861149089628927,-9.845061893551632,-21.02072042357964,-22.1835782711827,-18.684154313189207,-13.627622441166428,-3.3884138276842046,-4.91306013936176,-18.675386318807398,-17.813766911366063,-14.228895423607216,-21.26948648663126,1.2696488873483665
-35.4655110249007,-32.032114555820435,-27.725210164875357,-24.23998618834891,-23.302417664522054,-22.306551921941693,-27.665901361836653,-27.40360023585133,-22.99964744543217,-15.796699629431693,-12.89902183877831,-20.7041539568298,-19.24803416650789,-20.788891400078498,-22.233044563458815,-21.93024643331271,-12.309769935660544,-5.359102169059367,-6.939791075163539,-6.990461996926699,-19.512735133428617,-14.305634802752976,-6.108957228986279,-2.962158062417065,-12.954181922956119,-20.678449068530167,-26.378609082160345,-23.24076077231932,-16.449893652114458,-7.638406265249075,2.51822925163063,-26.10394873210828,-7.993359541060457,-21.606870664974597,-29.18728001536383,-23.041927400612074,-47.50071361522195,-13.407539062942753,-6.684104344995909,-13.894849521457555,-17.25768674495631,-6.867659533851438,-4.8530602596273305,-9.88371905473135,-21.588821493575114,-22.56574127992742,-19.462974073552758,-13.73421682598883,-3.251691732135547,-4.976175816812641,-18.825858090433645,-18.386827441165902,-14.509978272929423,-21.63646506763009,1.1526033166237415
-34.088924844731864,-30.891935893535955,-26.70367197027486,-22.533372203126987,-21.64845269341126,-21.464394743535017,-26.77530577984184,-26.554653024525376,-21.774108006704935,-14.405515772409357,-11.393630114554533,-19.76089938578951,-18.713511203726352,-19.92407320521543,-21.19534204892933,-20.933523192936207,-10.577466576663126,-4.705685888782954,-3.0548762484351837,-4.69849752914225,-18.819820584158638,-13.763599519276532,-5.418862876607393,-0.00014173186589938602,-11.951184758119146,-20.18055374660502,-26.21110030667965,-22.63496390095482,-15.968993580279793,-8.323007315697573,5.840793115322908,-24.481611524381755,-7.204416072737905,-21.989146794074138,-29.804953013632208,-24.13362698526109,-43.99361252585211,-13.13099569703434,-4.488785461517233,-13.422629365444475,-16.74615027162025,-7.26976510231749,-4.5023079365168455,-10.331680156744845,-22.504923245401915,-22.956782161460534,-19.97133404864786,-13.921779262314866,-3.7996682035029603,-5.530785553719768,-19.039668705899718,-19.18366648182202,-15.001590311723213,-22.478813384410913,0.5621111069930942
-33.28546364858801,-30.1729418825151,-26.04205992388863,-21.162985437103178,-20.033425582012676,-21.378532262956536,-26.197329768539095,-25.838075094143694,-20.76349317489046,-13.454075468985899,-10.291134262832305,-19.662003481213816,-18.515793858621212,-19.4218593760575,-20.35829718582604,-20.06156865750106,-9.245630829664199,-4.561455296405543,-0.370464458761655,-3.0509630808859836,-18.3866679588149,-13.888332920757748,-5.114553523655084,1.9501520505661187,-11.467399951170089,-19.873681289429044,-26.02719708612626,-22.119732325516697,-15.787543267348886,-9.471389813313067,7.384400582454665,-23.580789678170508,-6.780649910160008,-22.32658837951634,-30.101567992626457,-24.942316620908834,-41.03109209643653,-12.838021724062402,-3.1665824120178376,-13.482578870741609,-16.551052709278615,-7.511693288589098,-4.998107288422933,-11.117953840486265,-23.594829327919513,-23.249567246238644,-20.0424217876609,-14.163285097552835,-4.983912884657274,-6.507409801001949,-19.271558015156124,-20.019409235882996,-15.623819158636174,-23.644360784373152,-0.3732013932647229
-33.061317773023674,-29.87566917605695,-25.722929492164194,-20.169458144104574,-18.590865219082048,-21.965638771304615,-25.906497166465883,-25.19469505476558,-19.92762606021414,-12.868028276436021,-9.617853991110092,-20.349101993180508,-18.590565954092096,-19.153635301576383,-19.675506584692,-19.261024700170857,-8.362283184026955,-4.869829368200028,0.6280023267383026,-2.0765815309356768,-18.169582091602926,-14.521299011329116,-5.1824087002429575,2.5812505800008267,-11.53220651590257,-19.693397186969587,-25.66360081151638,-21.631162255137006,-15.742425034009564,-10.917860125387968,7.133078930768894,-23.597606972678157,-6.766194328420253,-22.458000177200056,-29.85525038978259,-25.11773838594343,-39.07461095984221,-12.701150203331213,-3.0376347942198376,-14.105806386218985,-16.701311217647987,-7.489732809572829,-6.417595553116408,-12.097141533929625,-24.630523854716678,-23.363082834142652,-19.55363750307989,-14.354830444375692,-6.644879195972889,-7.733132397245094,-19.46473605448395,-20.692290685470415,-16.25330921738353,-24.906678321584828,-1.4309753631295115
-33.391460773588854,-29.946119080677022,-25.703275091519956,-19.533504664750062,-17.48611706236864,-23.106564224321108,-25.865672940384453,-24.60038193016358,-19.22369424637817,-12.521927619531082,-9.324320668951849,-21.7046742717385,-18.87860264604196,-18.969614359321277,-19.096199553764247,-18.50387866771407,-7.860042446005351,-5.444322373773776,-0.27778898545918174,-1.790820945025546,-18.12860340396976,-15.345382184036,-5.476537079775132,1.772935685791562,-12.109938024181327,-19.548031047901834,-25.00292355530787,-21.05666204689746,-15.591924370560493,-12.379648084005026,5.3345668153593735,-24.64723147835054,-7.181761011870195,-22.277294985806353,-28.94865400818494,-24.408242894332503,-38.42718335514865,-12.727660063153994,-4.271601020760706,-15.257105250296775,-17.152906371737625,-7.162864712704587,-8.664013708096634,-13.073661819745027,-25.37088278165647,-23.240216817933398,-18.45274519828409,-14.342842893759295,-8.523477501024736,-8.95442513220074,-19.536486953208534,-21.0157302746109,-16.736513462378547,-25.98661081577881,-2.3165670456918637
-34.22904338901238,-30.300922242136135,-25.93152693319272,-19.208086050019656,-16.877830125361637,-24.66770631848969,-26.042657227764654,-24.0934611843119,-18.63823532674468,-12.29369921703772,-9.313002025369165,-23.56557056068554,-19.33763130326115,-18.762111128481628,-18.595162567575233,-17.810332412367867,-7.607515038000456,-6.032764574080382,-2.9838025591530943,-2.2229835097568866,-18.24645004735746,-15.993012614382016,-5.78167863059532,-0.3625632077945127,-13.11053028984235,-19.3581623956546,-24.02056480838721,-20.275139090035555,-15.104627372204286,-13.529845528420534,2.379559721501937,-26.717425614469473,-8.007563448398104,-21.757544431813198,-27.38629777339164,-22.730241568579597,-38.90690734497063,-12.781815887515323,-6.802624367823421,-16.817228280243203,-17.78119691775634,-6.545269352952498,-11.43379161659798,-13.829770742264186,-25.59754746800498,-22.828385641304887,-16.76108134473533,-13.980413591599602,-10.290225228780393,-9.878544712517535,-19.369674218260293,-20.847433263225497,-16.90918081956709,-26.593319069894633,-2.7158783967306226
-35.48370149145832,-30.835443512512835,-26.34542044276364,-19.13565745870298,-16.85450444886092,-26.496049661462504,-26.400656769642843,-23.755373901272538,-18.186630841149217,-12.097360135848207,-9.461932631481183,-25.71697166156299,-19.921288945663736,-18.491058496364015,-18.17482464899906,-17.2335133337394,-7.466692811367481,-6.399654999467397,-7.057866202461072,-3.3948755356756894,-18.51666754829814,-16.16337332180639,-5.897478717363717,-3.4626398066776227,-14.390817946256576,-19.07227420556795,-22.78713489495971,-19.196541096379637,-14.137552097275684,-14.09449939875692,-1.2859912594283422,-29.615465023379933,-9.145937163252185,-20.941279864452316,-25.278637771559417,-20.191383185357115,-39.958133545239,-12.687007381496471,-10.283834791431076,-18.566544490243103,-18.386321326247096,-5.676674548622661,-14.245646784055527,-14.157152641470079,-25.14385749878075,-22.05840284230027,-14.56218233455893,-13.18166744944972,-11.60238631987658,-10.227443046977799,-18.817572224359328,-20.10647368439218,-16.623401782627745,-26.479251985974457,-2.3624980721816584
-36.993454470796365,-31.42570501084757,-26.862676072072595,-19.251696997631242,-17.383676300482353,-28.403651137860702,-26.876649397649967,-23.660164356657837,-17.889475876585262,-11.900781980219314,-9.647860300424142,-27.888558525644743,-20.550306337209996,-18.16991123222441,-17.846908768704186,-16.825041541467215,-7.3285390469997465,-6.387136950367269,-11.801875926423666,-5.256534885411076,-18.903504837957367,-15.70217561025644,-5.700780175001769,-6.952475869276699,-15.748686108877797,-18.660808053058616,-21.4273146033648,-17.785065634505933,-12.672512693081243,-13.932738221049288,-5.210369445649803,-32.9555284042653,-10.394776209916298,-19.89907600337754,-22.794236165733892,-17.04994948306501,-41.226173867184585,-12.341226754921287,-14.121127789970323,-20.192003333346634,-18.71724949365418,-4.585918161997498,-16.538782868867923,-13.897275775295181,-23.928670103636605,-20.847472910774485,-11.9946559197993,-11.958847548971464,-12.191665827035706,-9.806394651465745,-17.744936280435848,-18.788522307912007,-15.786545073645495,-25.512958498813703,-1.113000549837495
-38.52975321790099,-31.941977999942367,-27.380794465765575,-19.487841547881157,-18.300976504548103,-30.169817276965695,-27.370873194918826,-23.82354543098869,-17.749769160095116,-11.723889476640759,-9.769732617857969,-29.781105510501863,-21.108304875257097,-17.83587387316443,-17.612995933742777,-16.602010265361734,-7.130453490598128,-5.945293671779357,-16.3840398417833,-7.615743964470781,-19.307065403241097,-14.630154005982837,-5.174435491088441,-10.167294843614188,-16.929956201881048,-18.10322825052547,-20.060352200730875,-16.066141176424956,-10.808467176749625,-13.077616373625247,-8.960709477243398,-36.20493362471092,-11.459279929357796,-18.684211353939528,-20.10998922415954,-13.641968996766954,-42.356054453805875,-11.798945885636256,-17.597793291397387,-21.33719583073721,-18.52191724490326,-3.2711122910937727,-17.81243046072728,-12.97886491908498,-21.983654811075628,-19.128511403499143,-9.236961952974525,-10.430016040674506,-11.941670692624193,-8.560086768885805,-16.08734086375301,-16.973019317554666,-14.397155933118416,-23.739383601873353,0.9899755633487362
-39.84072989270685,-32.27036097278004,-27.79504440264075,-19.774417695709463,-19.344876981596208,-31.56650168000414,-27.759803659963943,-24.176495079751724,-17.73600465869476,-11.618483603710152,-9.762505070592123,-31.119162505349152,-21.463534186400995,-17.51707293884489,-17.453574365392054,-16.528695808300668,-6.858839083272403,-5.130573394259908,-20.023865088417388,-10.129512852804408,-19.566874504265886,-13.118491767181807,-4.397546872789654,-12.525564030659835,-17.67103515771819,-17.377054993662075,-18.751635702483924,-14.126150230495071,-8.725427203907929,-11.718422616414767,-12.151227988777864,-38.793816087555236,-12.01089664994599,-17.30863229710611,-17.380129703683455,-10.303003710516508,-43.26554506703834,-11.266509326970997,-20.054092824075223,-21.686048849232265,-17.618689198023986,-1.7086093185928637,-17.767904727731867,-11.436300720886802,-19.46185429824611,-16.898847010032163,-6.487201945331869,-8.78777745248069,-10.932390510966087,-6.59830507066048,-13.902385000539866,-14.82482026035407,-12.560088262537079,-21.401463186199944,3.695965386084905
-40.721311130375135,-32.347119902408025,-28.03267219897532,-20.0570421289716,-20.247162924088506,-32.40941880340162,-27.933909748676772,-24.58257171882121,-17.78858606928633,-11.652883957228868,-9.615242237600622,-31.724820941115357,-21.51533001919874,-17.21700087341257,-17.338957578931282,-16.533976826403467,-6.53720106160194,-4.072055087670858,-22.181387687742948,-12.366990082800692,-19.501992366465014,-11.425721721749683,-3.499432902013969,-13.69321327345999,-17.76135607010193,-16.457623425126076,-17.49067309869517,-12.10071763826837,-6.6351054410731765,-10.135181051134388,-14.490056377918549,-40.262061830490985,-11.777178081860479,-15.74556407296063,-14.733705392058912,-7.304117007287433,-43.96917030773826,-11.006051067718325,-21.06370476716627,-21.05478192792978,-15.957597823990588,0.11373411404147182,-16.411201824216093,-9.41425415342658,-16.632626824497326,-14.27035547711694,-3.9497302095486564,-7.252454832285368,-9.437882768861797,-4.1883063645618686,-11.39701230336912,-12.584483593057719,-10.479549633674896,-18.907889305481216,6.584572551452649
-41.09465905888014,-32.19553661547697,-28.094148413351707,-20.325801643643292,-20.842060331538356,-32.622351131755806,-27.852308564104593,-24.89846866836175,-17.857383302049225,-11.90794767660272,-9.392698906892502,-31.590287847859802,-21.25146980896672,-16.9297616602685,-17.26074432923709,-16.557417165296947,-6.218837752799062,-2.9373583524892912,-22.699894563631304,-13.914743576355592,-18.97737620741577,-9.833570628038597,-2.615860327383656,-13.69302019941672,-17.11061541227817,-15.33590851209881,-16.213624120024516,-10.160580945713205,-4.743462095983791,-8.624519491105637,-15.83571799635392,-40.39408748426026,-10.638314950964142,-13.962980196972824,-12.290920704203119,-4.825252388269895,-44.50646112414267,-11.205541448805048,-20.553443280456595,-19.46874752448361,-13.654393430342031,2.1528239892411634,-14.080637307076831,-7.162386536474532,-13.85720746463037,-11.4946699256068,-1.82578020781605,-6.031126148806204,-7.872403159134176,-1.7135316445831825,-8.912593395495929,-10.54102568316838,-8.436395180424817,-16.749323585462445,9.147771431040834
-41.05598747264041,-31.934558234006637,-28.072298344139387,-20.632733959952585,-21.137375340530166,-32.26611946589542,-27.576289983345003,-25.04214002589122,-17.938823295109525,-12.466610310915943,-9.235162066934056,-30.889969607676274,-20.7727126097616,-16.665364388552387,-17.257272020989586,-16.593218976724657,-5.99225313950472,-1.9129867491733032,-21.85694036981254,-14.511392701774957,-17.981265245063028,-8.599266113092824,-1.8695357149039422,-12.917771709048106,-15.807475869548663,-14.053200792829418,-14.865463322816849,-8.503564786189806,-3.2370422945118698,-7.440799261911443,-16.253480286747042,-39.30924016506252,-8.703400951223298,-11.977475081377335,-10.184273605698245,-2.9664146515399863,-45.29397606148517,-11.877548669939731,-18.834536505928973,-17.196166670640096,-10.996617617730491,4.275342207613565,-11.373857921769016,-4.99831633851456,-11.530347347091741,-8.944443814634184,-0.299474257973082,-5.282443316681668,-6.691340681529869,0.39714395638050093,-6.860714613534686,-8.990139799211502,-6.740098227436531,-15.382996604535546,10.902291359717736
-40.851540956810936,-31.758872219364694,-28.13645420551187,-21.09259607561452,-21.32917933586183,-31.530188089790066,-27.267341821010312,-25.043089563189426,-18.094168057274278,-13.400253633648134,-9.3349069392291,-29.937722478918214,-20.27371305173185,-16.47240685371953,-17.422541101143906,-16.717286714730616,-5.984072016585798,-1.1858533059665812,-20.28291031387767,-14.146589834418188,-16.666192561825675,-7.921836664777837,-1.3636523995308507,-12.017030983876106,-14.120589805619757,-12.723006102551414,-13.460917477299722,-7.334355056506892,-2.2819987109797895,-6.758319803567089,-16.026886547578968,-37.45032250067659,-6.30747451049519,-9.892446898178719,-8.570604883950832,-1.7789944419482007,-46.4102741037543,-12.831514208759824,-16.511008003695668,-14.701256198942858,-8.39194956912957,6.257593624485134,-8.999126178697935,-3.249264326339717,-10.003092265514498,-7.044229284651887,0.48285798248352974,-5.101143808538977,-6.27458162230344,1.7521448819814216,-5.625877519087564,-8.185031770852818,-5.666178576174224,-15.115163614441173,11.507944024013106
-40.795054473484115,-31.884190900284796,-28.481835402930376,-21.85348124802925,-21.738791458484336,-30.682007059192205,-27.148180434715258,-25.047506852463393,-18.444955538682795,-14.756803487521923,-9.897744542947358,-29.098459832991313,-19.984046399554135,-16.44050344674535,-17.88886927538374,-17.074912040814244,-6.349561951954219,-0.929566148819263,-18.772675001797175,-13.071752109053934,-15.33092490066095,-7.9260084673683515,-1.1908187095899694,-11.696353466265982,-12.439583992889412,-11.52738937939,-12.122457659045503,-6.833606018910798,-2.0255750551983738,-6.662786037208351,-15.606903203554923,-35.46730172271526,-3.9297237839476615,-7.905168940229064,-7.613352708081916,-1.2953222723552633,-47.71037402009921,-13.745572308249496,-14.304947770405763,-12.532800080279996,-6.2779112682687614,7.820533967847923,-7.588388128783471,-2.190314393501958,-9.507264668452887,-6.166710046385096,0.43536875916437756,-5.521976246220438,-6.827425774433173,2.0791471606843634,-5.46317374685035,-8.289254498512822,-5.400870822165638,-16.02076887716736,10.846342129664471
-41.129816899832875,-32.453083276703055,-29.242623099918987,-23.02873323039538,-22.67327465630043,-29.95809029304837,-27.406542569439868,-25.250181692450916,-19.12058965194551,-16.524227406184664,-11.073885763994024,-28.646125004207047,-20.06316465180962,-16.659383706642377,-18.765025601393166,-17.81233859956007,-7.248156223881501,-1.2919207886114374,-18.043950586656848,-11.724185905561894,-14.34461116383816,-8.65915420439655,-1.448195959078959,-12.489913282608551,-11.171108387310488,-10.688414575914232,-11.075034914488501,-7.12308832140538,-2.5855916000101633,-7.167358575154134,-15.49257561649778,-34.034787084921184,-2.0683196405301674,-6.277728111792609,-7.4480171906082155,-1.5403512569763596,-49.22859014297811,-14.311254105934964,-12.854854094021096,-11.181554349435187,-5.021771370436651,8.693646908234216,-7.507385415196267,-1.9700899608771856,-10.08051904297773,-6.513613046577662,-0.43265586026076486,-6.513702997919916,-8.309041009100131,1.3013232235972754,-6.4079973996579955,-9.320911353961591,-5.987318025204123,-17.909908138285875,9.060832277128299
-41.90893484046099,-33.458656982553876,-30.41650156004882,-24.628677394690367,-24.28362658404998,-29.47430620651069,-28.1023324806907,-25.798703964175683,-20.18491229982209,-18.60018474094726,-12.8881748514275,-28.656395647466272,-20.51479117644689,-17.166577043588667,-20.066122742869762,-18.995797131845684,-8.785894154308286,-2.35591686601197,-18.495764152884277,-10.563962564145493,-14.014581216141847,-10.072866748504886,-2.220631894028578,-14.560250902866036,-10.597643804851574,-10.396177377960719,-10.570180064571797,-8.216790979908343,-4.007465363364448,-8.222647795183315,-16.052578169581466,-33.63402736020432,-1.0772118495906806,-5.256987705330433,-8.125281969385108,-2.507603136600093,-50.685079406001535,-14.372691391328843,-12.523760877051398,-10.923084348074909,-4.811428299225911,8.710174500225332,-8.740463682922764,-2.558939360351339,-11.531636368991514,-8.02919349598868,-1.9889966954656781,-7.968553170754312,-10.426021814151413,-0.42529086838859953,-8.241442361082044,-11.119020322709492,-7.29762719410206,-20.36001984843987,6.53571115515562
-42.95813549360654,-34.726357426246054,-31.840783342409217,-26.526054751532904,-26.47865435166804,-29.19454682514311,-29.130024432502754,-26.71436934189215,-21.58463985771378,-20.792071290221042,-15.208594937677681,-28.98417990841774,-21.16911761802508,-17.912503556236228,-21.673348622552094,-20.54951944842354,-10.953164559225522,-4.09566220578291,-20.078396649926123,-9.899452068641738,-14.46495620417104,-12.006995794608468,-3.544749058211893,-17.62587083130311,-10.775110589100796,-10.729639283474626,-10.780922915562119,-9.983928240953219,-6.210799346214479,-9.721283949451749,-17.394660616945504,-34.39710305379879,-1.046519089914371,-4.984083814695479,-9.554601062606991,-4.117329915054699,-51.92305559228195,-14.008275099016195,-13.303059768567607,-11.720558345343486,-5.597274489834037,7.8793495134859635,-10.886592274287722,-3.745983430637931,-13.474161481963971,-10.390571275443019,-3.977694357665662,-9.686401578640924,-12.698904876774876,-2.7293753752110783,-10.534082666681662,-13.361778367043007,-9.04551893453897,-22.81959211584763,3.8036960730635325
-43.92511558412718,-35.951090600803724,-33.224578600742525,-28.46190312502579,-28.918353137706102,-28.95286377879613,-30.231016976887812,-27.850929413840333,-23.12946288676832,-22.833489314416994,-17.74984457222336,-29.320579587032295,-21.727521797816443,-18.751120205477218,-23.332982043317376,-22.234909608529403,-13.58987644343773,-6.352950997393233,-22.3258392223889,-9.788969188356193,-15.580676834610983,-14.19749683703774,-5.3724570664080336,-21.044240178555324,-11.512653069700038,-11.617023724977072,-11.717555901129211,-12.147196384670385,-8.957131465845519,-11.494034855107536,-19.323498062588854,-36.070173181456774,-1.7812273743760327,-5.43881255942031,-11.497925284053718,-6.187354511820418,-53.02490262140311,-13.49509991656426,-14.833732485230907,-13.22713467393497,-7.102070460275149,6.401799094538641,-13.263042646183088,-5.1776775737833525,-15.40890640066046,-13.073694971940107,-6.046907519283171,-11.36917799578368,-14.571936011017193,-5.089549668528392,-12.74493403679222,-15.616762347724887,-10.835705388516898,-24.734724782409465,1.4302320674075255
-44.405479666566436,-36.784228411336954,-34.23192030853993,-30.099435492504764,-31.10490865352404,-28.538564719757122,-31.072390483972775,-28.92507327641258,-24.52436858726099,-24.43371503393775,-20.12571624075405,-29.322931778655704,-21.874277810297325,-19.47379694388245,-24.709245651853085,-23.699898273957963,-16.383014672644062,-8.836561714922752,-24.52493793712766,-10.035592217565066,-17.026094844406078,-16.308730831347226,-7.540157653411177,-24.007853268280336,-12.43458580224957,-12.83986305493906,-13.187027079772346,-14.319973956789777,-11.85397992038854,-13.309746160139944,-21.38541167768188,-38.095803571001085,-2.868404698429721,-6.428660669666989,-13.600702022144365,-8.429387280888662,-53.883475347394175,-13.169281506950966,-16.53110681764981,-14.878092169446555,-8.886348589970117,4.637032979072767,-15.102218274321594,-6.4435127602935385,-16.84526234750742,-15.487006085613103,-7.814180896571248,-12.662685006067731,-15.55737564420101,-6.948978383253219,-14.363181070393363,-17.42901805355293,-12.249078166448697,-25.677719214447855,-0.11458278636372743
-44.106680244056726,-36.9517545345804,-34.59261142359676,-31.118849627135187,-32.53933523859539,-27.804019272869628,-31.36695352739179,-29.607179205680147,-25.446375305534875,-25.34338276569667,-21.9398080421352,-28.759249070758987,-21.41003419025515,-19.877404198700486,-25.474776622865296,-24.57451484960535,-18.92125091665332,-11.16509713618834,-25.96984679090158,-10.294714461688129,-18.349985455242994,-17.999687046614888,-9.775601082964306,-25.7965341960559,-13.120357966328447,-14.088367945037662,-14.824598217422395,-16.084187634248273,-14.420419509449614,-14.904287314399955,-23.021188232902833,-39.80054556453066,-3.8271500300933763,-7.6393234128501835,-15.464326952980901,-10.491751084866243,-54.385159332220994,-13.264996331142365,-17.775132044497585,-16.0643852805364,-10.46998133192726,3.0090558065045725,-15.777506060759176,-7.188914615025245,-17.432907360822142,-17.133015983024453,-8.947316651308878,-13.220596851365542,-15.369443085110703,-7.852804168124033,-15.048032711289025,-18.433233142352396,-12.934499541435297,-25.451511594206945,-0.5675504848155324
-42.98753940761418,-36.36459578987851,-34.20557688481031,-31.320312289433936,-32.88891774969637,-26.760346786488885,-30.989347698756365,-29.645101021541024,-25.64487801671243,-25.41887752749001,-22.888410916535598,-27.62574421384112,-20.35861833585396,-19.848329712001444,-25.415255012897493,-24.592968007358547,-20.78771230156907,-12.947233050980937,-26.207627294353703,-10.248962972804923,-19.14049809334986,-19.001723421186917,-11.744349805298164,-25.995015523090096,-13.266309726796356,-15.060213516606582,-16.191393608807957,-17.087335989409517,-16.19861128527775,-16.023738185443754,-23.756850993662706,-40.616737814246044,-4.280770465997754,-8.730144763295291,-16.74847131678803,-12.038783081157996,-54.346957192808276,-13.767024490670142,-18.09428684853401,-16.32298271780774,-11.459913440839543,1.8817864762894803,-14.996431047528748,-7.227417977358483,-17.066999394670965,-17.749744554774757,-9.25138091672038,-12.788620636627424,-14.013968989348502,-7.5768945284710725,-14.722664472087732,-18.448633821415488,-12.698198643262236,-24.13117736347766,0.07223573485305579
-41.308709466484146,-35.17154747715746,-33.186050041663826,-30.695966008111306,-32.110023524112975,-25.618989636325804,-30.047001395417432,-28.98038603841795,-25.03779452474186,-24.675548398207045,-22.853592621644914,-26.18722055632739,-19.008548795349284,-19.42782036741251,-24.516486260241262,-23.70531152025952,-21.668129759300204,-13.881206453935818,-25.202114943865286,-9.777200948512098,-19.177443746489505,-19.195367688479486,-13.129816771822782,-24.62248728062154,-12.81715706643066,-15.573712287155066,-16.916700361556614,-17.1411165056021,-16.87886584676075,-16.480991872193663,-23.37495787064354,-40.27973302848927,-4.101965979583545,-9.447719769748813,-17.26128759637764,-12.843471092950503,-53.79261858975238,-14.366793840459877,-17.31411491735364,-15.490734019668421,-11.662981524664207,1.4502962216055806,-12.914991477731814,-6.626208441962985,-15.938063775054513,-17.397066657434962,-8.74662083214329,-11.310586599533178,-11.82481689660321,-6.225624316096019,-13.613890358812235,-17.54626719125475,-11.57430397963483,-22.057558420583305,1.5330675818145978
-39.56585676238288,-33.7296701094418,-31.839845787931488,-29.441638397022935,-30.4698369936679,-24.742529391225695,-28.863652076515457,-27.791924896774397,-23.75417930917619,-23.292379384758103,-21.940014924159115,-24.901175797335856,-17.846887557652707,-18.82233862751427,-22.986969821301578,-22.11569719732127,-21.454855248572485,-13.844192557186625,-23.35016089210311,-9.065827315237767,-18.529789313942914,-18.658227759695073,-13.724771545921204,-22.123332531395082,-12.018951853743351,-15.652607163704493,-16.838200567380532,-16.29291597611148,-16.412225249529076,-16.20822862793788,-22.01320915494247,-38.93240062431316,-3.481058938053553,-9.72755488142775,-17.023488743143428,-12.86819537829706,-52.903161179831464,-14.56635087267486,-15.619319968792134,-13.784032443384975,-11.156865207234889,1.6663395974121415,-10.120740363908173,-5.719955799701927,-14.500998577306767,-16.446232902161658,-7.684026005399869,-8.991002766880936,-9.411737295579957,-4.248047261116595,-12.208322078161583,-16.057349435504786,-9.837203603655121,-19.77633598869108,3.322149446651344
-38.33239876013471,-32.502123352247494,-30.577894498258317,-27.90279662511603,-28.461753230253972,-24.530549067164745,-27.88427680385101,-26.456939879314774,-22.110681442109293,-21.569987387025595,-20.44668977566006,-24.270653111883696,-17.412323187785645,-18.356504317338945,-21.210386834603437,-20.240808764799397,-20.28648869547038,-12.929372004092087,-21.333352161123617,-8.580894214815524,-17.550632877326187,-17.642103991214263,-13.493448325261843,-19.22218808308739,-11.35629132368535,-15.542061940835309,-16.072447433734826,-14.831757939996944,-15.046720925445662,-15.28234087263563,-20.116940242999327,-37.08320060436273,-2.8700926564009492,-9.728203215299997,-16.272323490113337,-12.292897876005789,-51.69429761566091,-13.867608939737247,-13.498854530277711,-11.755171924792393,-10.277424035484726,2.2381112307726587,-7.478898897090373,-5.039180408622476,-13.365496384112273,-15.474141642165087,-6.493989352453211,-6.280066618417533,-7.52433414712594,-2.350051106458891,-11.128580829183065,-14.502769771188373,-7.951417159655451,-17.925205575382538,4.836353880318297
-38.06085711872532,-31.91356901360678,-29.785530536580925,-26.46928965432004,-26.644896727445225,-25.27533606596892,-27.528158909176238,-25.437961369630955,-20.52597470994038,-19.854324900902792,-18.782395158178716,-24.67075722085944,-18.11288605461308,-18.366891844470935,-19.638743575669128,-18.594905861487447,-18.512480288358798,-11.422120177838142,-19.87659865320169,-8.91068812207469,-16.773954960645273,-16.492684237903532,-12.584987756621159,-16.71976082631916,-11.396555485518705,-15.64420021033714,-14.995268743720985,-13.22507357532701,-13.26246742988121,-13.904249447068597,-18.28127102585984,-35.446354502622285,-2.8384221563505747,-9.786374084146507,-15.401752874538008,-11.476399170985902,-50.584830129860514,-11.994660315240674,-11.605669228034417,-10.141973831011349,-9.534479761509218,2.7102095984950036,-5.890512152149821,-5.165908073987859,-13.128842697591883,-15.09116519421633,-5.685506217808809,-3.786249118267943,-6.867735984896789,-1.3224064860108244,-10.969494062397489,-13.462963323409134,-6.470990327102602,-17.100816747594312,5.499219854826736
-38.921094557492296,-32.21189614677934,-29.701619349258564,-25.456969386207962,-25.46720609371973,-27.0429889756553,-28.04359641292893,-25.126552989895636,-19.396065544661905,-18.44455727902798,-17.345035777567926,-26.20990410824263,-20.068963500844152,-19.080688577096755,-18.657629059711905,-17.63232877500287,-16.59799986144139,-9.713121800476348,-19.49606531207493,-10.533885928760315,-16.73605519903027,-15.531929823140231,-11.279433174461875,-15.27523192769569,-12.584887533623354,-16.38214048986603,-14.12728549822491,-11.9965144787787,-11.631290022193086,-12.326975410176871,-17.049855557453892,-34.709998117988,-3.877612039115699,-10.302224174587325,-14.856255996657978,-10.852265378922631,-49.9489342907201,-9.04147647957919,-10.564939591586882,-9.651672856908771,-9.466627745634108,2.5997302987669473,-6.028511799847626,-6.549159948331058,-14.19790952883027,-15.751278645779703,-5.704449655586648,-2.1276284048267855,-7.905834017506354,-1.817665604068643,-12.128697997806162,-13.415792265273385,-5.9012041939405755,-17.71752451231109,4.907877519924075
-40.737641541195686,-33.38517485935138,-30.35157095326944,-25.02007026181986,-25.138070808178842,-29.626096088250634,-29.4196155410091,-25.71230258388268,-18.98035852370013,-17.522732143113316,-16.415638480059123,-28.683699636123922,-23.046582341011593,-20.527981524811995,-18.476061386416294,-17.611489725465606,-14.986716500291516,-8.178476299141094,-20.33684365419937,-13.599685728645989,-17.78834373757531,-14.941317435254183,-9.895251666779105,-15.252318944970197,-15.069209829901872,-18.041387344305978,-13.956087655482582,-11.57704834942044,-10.637650455892109,-10.780463244402792,-16.73530712771909,-35.31292024766482,-6.216548545281117,-11.586552389975553,-14.999394078626157,-10.793598815635486,-49.868023218009895,-5.4824510592007405,-10.789483039303448,-10.739350576994376,-10.477449591990714,1.55565177468005,-8.128345389272049,-9.34016077097787,-16.65468635556477,-17.610748123961514,-6.794577383617245,-1.7529718479332304,-10.706832381105489,-4.13735812919655,-14.680543355070483,-14.594942360082069,-6.552376391493855,-19.897452969682423,2.9482908939695323
-43.03663562207254,-35.158038034496,-31.541816200834255,-25.115202062977218,-25.575975532307847,-32.57318023378232,-31.369993431649704,-27.107483562129524,-19.326867393158857,-17.115880268769192,-16.08624014315012,-31.61876416701733,-26.491771017779595,-22.500522736628334,-19.067155550701358,-18.51348362635516,-13.977703849312995,-7.077315447741556,-22.15009313451233,-17.824362829018384,-19.973328258859052,-14.711447033297175,-8.697796757126557,-16.66453003915751,-18.617880852417443,-20.644078660386235,-14.764416213627614,-12.17951042037026,-10.528596919145407,-9.418442945689813,-17.329343682145183,-37.3040477321548,-9.720521264839203,-13.731489491444618,-16.00816309397095,-11.499588541319834,-50.68659314157772,-2.072480022444262,-12.356712445935191,-13.457354031315562,-12.70427793078545,-0.5166917152546662,-11.900325741924433,-13.301207926889346,-20.204838767465997,-20.467661017324023,-8.91361777921249,-2.8021382537829527,-14.886139038771837,-8.097416852651435,-18.32778502861457,-16.9008879350582,-8.440694439201067,-23.411571834885542,-0.15064042619607587
-45.1964619031028,-37.06966320436119,-32.926538709563026,-25.53220282171431,-26.456572470249117,-35.30553134917023,-33.412070951577576,-28.965295555013828,-20.261858794273753,-17.1051397688462,-16.244331194805152,-34.40735786822799,-29.671814987945982,-24.595935086066383,-20.182336048979604,-20.046299801160824,-13.649160088207433,-6.48659176000318,-24.392266609668695,-22.50628792457333,-22.983231366705585,-14.660860690215333,-7.819991806504147,-19.200521937618575,-22.64328899613725,-23.893190137330667,-16.518366849462502,-13.731953107824724,-11.237952972905635,-8.293100999841286,-18.517645034786188,-40.31586285596075,-13.892515899057479,-16.540230596457285,-17.812595998402333,-12.925710403997897,-52.28787994086496,0.38222841201528057,-14.973222210827597,-17.410625113981922,-15.946070204444153,-3.4000003237093823,-16.594392963729483,-17.82756008828917,-24.23536516477259,-23.80570149783931,-11.72889039423595,-5.067508099454665,-19.674527638045067,-13.029417744005737,-22.453441689195465,-19.906349081597646,-11.270933965827123,-27.695345440210545,-3.8499188922139425
-46.646977667191095,-38.61310100262857,-34.119260485985606,-25.982216833254295,-27.34072996897054,-37.279600442957324,-35.013226216554976,-30.7925135314592,-21.455519494850734,-17.28410712510343,-16.631865785319125,-36.48598493314964,-31.88460898573359,-26.33339773356913,-21.440065035209404,-21.744491081972246,-13.85113301949344,-6.300152567536314,-26.428447307938473,-26.695876183149934,-26.232947502221496,-14.513111793363038,-7.239087184135803,-22.33965852572973,-26.351027803112892,-27.222856446587922,-18.86072978144503,-15.89202988064213,-12.415457678305906,-7.368389045636004,-19.802963179657596,-43.67711619344288,-17.990509076289605,-19.551318070862344,-20.105910134308647,-14.794439149231982,-54.12084168524516,1.3010173725725367,-18.048884832049765,-21.845845233277423,-19.691735305006794,-6.60485746541216,-21.203846534469594,-22.086142819461596,-27.963225600890233,-26.939009772401967,-14.699600036244489,-8.05401917606411,-24.099977337662967,-17.931989360823252,-26.268939189229087,-22.97749293953064,-14.497890006487886,-31.963464445836767,-7.426269153849229
-47.03605462582398,-39.38246646950461,-34.80142789130669,-26.20093010183358,-27.821388119326155,-38.131971988356085,-35.74202016838767,-32.09573341979976,-22.53128718758457,-17.436576014194387,-16.9419341036187,-37.481883897132676,-32.654746315078555,-27.289157211641776,-22.448445303050317,-23.11510582823678,-14.282440105865017,-6.297511046958536,-27.75289412739472,-29.485151871031483,-29.029139551157762,-14.035688687669621,-6.820314777485586,-25.49697318941485,-28.96509609229109,-29.943185014124076,-21.212477082425483,-18.14330885218034,-13.569484581108561,-6.580472784173431,-20.689791032779016,-46.620712690385496,-21.227254332093814,-22.161256953894746,-22.4335769795213,-16.694665359463947,-55.70736923645919,0.4996273275123335,-20.86165588275317,-25.856369352941655,-23.24092609318168,-9.500961045358931,-24.748597552670603,-25.238150893038974,-30.637869772148672,-29.199929976412367,-17.22780904897405,-11.123491916087719,-27.243681046238898,-21.730086436552916,-29.008510806331966,-25.44295260414297,-17.463333043430083,-35.379833143008604,-10.14665908619223
-46.30836559596109,-39.17118556991021,-34.79671056589178,-26.028741873395834,-27.644457028461375,-37.76377183257366,-35.37911114937015,-32.52088053975701,-23.175060948075735,-17.40383682451787,-16.914851984199622,-37.29025344812254,-31.85352905285143,-27.21708603436274,-22.91667502982831,-23.77807340692887,-14.6095713173405,-6.245279440733325,-28.133852815871343,-30.281601379015903,-30.76107736678531,-13.157384216003548,-6.393735253654814,-28.138817386454942,-29.9420433268713,-31.434259204350905,-22.951374999306637,-19.94677180079819,-14.25066188693591,-5.903947198521603,-20.845455022009265,-48.51077125920305,-22.983872203935213,-23.798052791284295,-24.31443715516468,-18.211390209462937,-56.54123687378803,-1.7610722613155576,-22.758673326544283,-28.629254695480675,-25.881380277453843,-11.488437604165988,-26.54667806119318,-26.676809052966316,-31.742485892741268,-30.11482703774806,-18.82262919552496,-13.67904670136182,-28.490282586889805,-23.57257147245402,-30.120473376936694,-26.77049866135228,-19.5697093747971,-37.25011128815411,-11.453564336551207
-44.68212481087147,-38.00559841543628,-34.094419488557605,-25.446555461365424,-26.761964878126786,-36.338636739387105,-33.95760622901883,-31.94386353875921,-23.217814188310232,-17.121481117830346,-16.413189726026264,-36.064782831419166,-29.71075373180034,-26.112656565347052,-22.726580381054713,-23.56899313096444,-14.580397143229145,-5.985885314052274,-27.641231749096956,-28.98358747522925,-31.0590255525639,-12.004225862651916,-5.832343382474932,-29.862266523366277,-29.11270718877586,-31.325737774203834,-23.605431207038926,-20.891373420757994,-14.20790426851444,-5.369680672074853,-20.183746292100256,-49.01761485592437,-22.974100563294776,-24.08757482454181,-25.36089418236387,-19.04647245024312,-56.473737589172934,-4.860511676158685,-23.331135778868887,-29.66099565240502,-27.078127883378293,-12.162959627782563,-26.39279231309273,-26.19911917834391,-31.12308640422616,-29.523824729010027,-19.22983517142511,-15.322389678981486,-27.695955030227413,-23.077149586364463,-29.409011911557478,-26.71620766870903,-20.4322985240731,-37.201916054889296,-11.11341301229027
-42.546327386246546,-36.11363681743305,-32.82693087078212,-24.562209629056788,-25.3185548413535,-34.21904924007222,-31.731663679360825,-30.48335097746361,-22.66929008460615,-16.62321061914673,-15.45486594287355,-34.1424309231758,-26.73111554137046,-24.20535220340127,-21.946016708078982,-22.56801156838658,-14.101167245847572,-5.485564828881516,-26.559533792346862,-26.00091436238975,-29.87807929149069,-10.869026194878083,-5.102795088816679,-30.435896827681255,-26.709792052777345,-29.60203366049947,-22.988050488178825,-20.797946854460157,-13.47524686219629,-5.054283992936892,-18.85750131384692,-48.18469908172345,-21.304384788565592,-22.96419541879939,-25.373541655144106,-19.102963162481203,-55.50477693547785,-8.03034782915145,-22.516627733959474,-28.88137926425736,-26.611791890363996,-11.424481043744827,-24.58934517099613,-24.059047211303835,-29.0135402836819,-27.603213410874424,-18.490205443752245,-15.939388997856316,-25.225061334034326,-20.439645107779292,-27.07942178828796,-25.376529869249286,-19.97309902774745,-35.28566520952996,-9.275111654898733
-40.31366532728252,-33.83411960822643,-31.20840081895279,-23.554956244694704,-23.585514794543425,-31.850690789545464,-29.080829593341623,-28.436646300902446,-21.685576283366743,-16.00706783860284,-14.190726080856926,-31.92654866525699,-23.529263034996312,-21.877199609080325,-20.77827236105313,-21.04405764241188,-13.249924070961805,-4.840827505305422,-25.242591470525344,-22.12817341332245,-27.48603878838774,-10.104313045426247,-4.281237173403778,-29.809780283332028,-23.28281763522142,-26.608311183380835,-21.242328825721827,-19.75317921365836,-12.3458802419155,-5.042426803184872,-17.176698560996357,-46.38035533955733,-18.427184566092784,-20.68678208490159,-24.376083496788617,-18.491703265738725,-53.82949858592077,-10.58696262581411,-20.603077640494142,-26.65062261070399,-24.62901070977867,-9.493847260037544,-21.821979444990962,-20.881803448268375,-25.951849300234176,-24.78676672446134,-16.9021870507966,-15.683214258322442,-21.83462302663345,-16.37445432544614,-23.67090059536293,-23.13260372103286,-18.424729205804315,-31.96519565642363,-6.418438726377668
-38.29380173515918,-31.509841929758142,-29.464148155712415,-22.602576565944293,-21.864032045075334,-29.632281242949286,-26.393466910420774,-26.170869238100195,-20.494498675981436,-15.379360447210804,-12.839359521982395,-29.77062569252886,-20.643483482701537,-19.53838668909683,-19.473816491875343,-19.347918231965124,-12.224957188796818,-4.23456254575145,-23.952368069537574,-18.28874468617782,-24.359875663880022,-9.972186525347105,-3.524831758007819,-28.084340911437543,-19.519924609012676,-22.941939270556446,-18.775039548115483,-18.056630116129707,-11.241269410731933,-5.369939803647878,-15.466667571228465,-44.14721142190739,-14.999084601328827,-17.746355258142547,-22.581783761612133,-17.460235689670508,-51.96957710600734,-12.12191405459893,-18.119587958309843,-23.62387090566215,-21.586015984887663,-6.829327721718858,-18.92660126447116,-17.462401393703853,-22.608628195364265,-21.620095411862817,-14.905530980633717,-14.873786183221855,-18.441638875643818,-11.896991111428822,-19.89720626316467,-20.514791262194652,-16.239859943539876,-27.995918387380996,-3.207970065637478
-36.637578232026314,-29.408787125218876,-27.79073027836573,-21.82960097379394,-20.4127365457998,-27.835432119848864,-23.97891998430133,-24.0193906126488,-19.319184148366578,-14.816127413573136,-11.617894913915386,-27.917845599966842,-18.41341161229663,-17.518758075956253,-18.24673303806701,-17.800620988741457,-11.252260551096752,-3.8531889022227266,-22.75448566167662,-15.25007230768673,-21.035576210468538,-10.532495537384722,-3.0033093266568978,-25.465427162986416,-16.04590340481756,-19.269847728061112,-16.10322278309675,-16.10274996880366,-10.53409030347891,-5.985567593962002,-13.939277785437655,-42.00810665039774,-11.68116130684391,-14.708324605573653,-20.31593741478882,-16.28212821956741,-50.16208514904698,-12.585150768358856,-15.658993449192149,-20.53400654376837,-18.10135877323513,-3.9715673829001528,-16.62461770724823,-14.519462375406329,-19.58856023383358,-18.603125523122575,-12.931322303715021,-13.865810312032602,-15.844871014236013,-8.016448790061116,-16.449586123071395,-18.033517165788062,-13.945698832306466,-24.218520870384502,-0.2987842489254384
-35.357375183969495,-27.694001479131128,-26.34402468686539,-21.295481745515314,-19.41366870238754,-26.58147621680346,-22.027107326594106,-22.21451349048145,-18.319400588811003,-14.350648308018574,-10.691686238565005,-26.493792654295145,-16.933134352482703,-15.999670721279863,-17.225569374695585,-16.61295858878812,-10.500676074913862,-3.8111174899754245,-21.53236468132313,-13.438104821358467,-17.97096384267848,-11.6150736132557,-2.8305057611681335,-22.236706668494005,-13.273646784048202,-16.145088708020555,-13.685835356161897,-14.250966323926017,-10.400085928959262,-6.7432102258775,-12.651648094432913,-40.30720521812234,-8.961398308828597,-12.044321163992413,-17.91819740858969,-15.152045745562447,-48.7865374945164,-12.229406301645904,-13.700164486048727,-17.974582271218004,-14.772734481031703,-1.3805507343154453,-15.327480300598836,-12.498958551908986,-17.277902070089464,-16.06989034504604,-11.277200322305772,-12.929707534139864,-14.506938624407027,-5.454593286685494,-13.825990992845348,-16.03574851898935,-11.999114494878096,-21.338882260265006,1.8430540427839848
-34.39314911204336,-26.43257938958298,-25.235172277637943,-21.002457807409744,-18.955775818665277,-25.860316618174064,-20.61070333560819,-20.86402776879559,-17.559803593968244,-13.976287451689721,-10.137974853257433,-25.528729411413217,-16.081576881995954,-14.995014509741154,-16.437285598267696,-15.845782316984929,-10.037266108805392,-4.114642881092346,-20.090740339000828,-12.866082034754916,-15.457820607771428,-12.874813942570407,-3.028925341397095,-18.73663334622809,-11.338135538529686,-13.87575845216182,-11.800302219977404,-12.729936239356858,-10.75145798100642,-7.440629884252858,-11.539919167000884,-39.1396953396581,-7.054953872404246,-10.010172632755333,-15.659157707655602,-14.12565706584432,-48.18579770418237,-11.482505481615338,-12.48528212738546,-16.247861551651084,-12.022401832629233,0.6845662067035008,-15.061482581326867,-11.477244696935976,-15.772310701503127,-14.1304411504982,-10.034019502721806,-12.17329169363441,-14.451827321376694,-4.463953174421779,-12.221156798550982,-14.626204726816773,-10.666993901674065,-19.748273639118327,3.0538222019482424
-33.68852788198756,-25.63015233103125,-24.542476105935883,-20.923154701662117,-19.044790658410633,-25.579304922487868,-19.71879783607086,-19.97467870421331,-17.022065576166664,-13.67271736442667,-9.94379744744736,-25.000882822125355,-15.62728187224485,-14.394085907632029,-15.83259623112708,-15.429366739096132,-9.818922621702901,-4.666534315511199,-18.29269658232435,-13.208003415714733,-13.595618280007505,-13.908034493219327,-3.523529949951046,-15.325653296458972,-10.127398282469429,-12.478554246168427,-10.489245470705605,-11.589574520059584,-11.269135226947801,-7.890263540069253,-10.50381789482317,-38.375653703147385,-5.889218775517395,-8.606929857295825,-13.693701065162287,-13.114439526994062,-48.153608103232095,-10.774685614577342,-11.99014625573355,-15.320340161127513,-10.010866601767257,2.2129385552827063,-15.520814721335427,-11.191209355712333,-14.90136421858855,-12.697507714700144,-9.089562031746473,-11.546280852421914,-15.301003360448494,-4.802311860627763,-11.518598717197026,-13.689694309282366,-9.977493721265898,-19.447768046655575,3.4758504894514965
-33.24917306613195,-25.277515059665184,-24.325187169650995,-21.04047746881106,-19.629834435105593,-25.62393318865174,-19.309304230141063,-19.50536833745046,-16.650691932603774,-13.443526461601701,-10.043054402459614,-24.875280750461446,-15.346739378240512,-14.040793053794332,-15.346237123411612,-15.231941177479255,-9.732658146043914,-5.303330430287293,-16.17505281001389,-13.985140650842093,-12.327166063943064,-14.401468906065942,-4.167411214380451,-12.351322348062792,-9.391124929405676,-11.728341908448082,-9.595830145353316,-10.720504009727238,-11.531448583134134,-7.991793779820651,-9.510876691975437,-37.76248882236478,-5.178500290328799,-7.632220086931362,-12.062868643539993,-11.949646849030795,-48.64341994673581,-10.378484693344605,-11.985947912253778,-14.897933153606177,-8.643944685732604,3.39594021424577,-16.227222334173117,-11.186754917643318,-14.34045201059827,-11.571945513986005,-8.214425171431296,-10.916828511684422,-16.44408642084095,-5.870078884357349,-11.380632851883238,-12.982802761804376,-9.761786702053877,-20.097179647879486,3.462886971438588
-33.14954737590433,-25.37688661949799,-24.61445572382936,-21.363089493528797,-20.614585634975903,-25.89942517769094,-19.34352196933633,-19.41086099561044,-16.394123290291468,-13.331315088204914,-10.348687434950865,-25.114850576467767,-15.111474863185684,-13.805777960936004,-14.942557097358614,-15.12518164448562,-9.669866274831897,-5.856451562928155,-13.99516641788773,-14.758294517067247,-11.514465829801772,-14.24477571431706,-4.7985170630545655,-10.120263009930602,-8.870318222703158,-11.284883721053172,-8.874033626236088,-9.937101904902715,-11.185083840350702,-7.77008849220963,-8.65911620919449,-37.0696174882379,-4.5654549367434925,-6.798560116864328,-10.736530748963993,-10.483849713532274,-49.58477164025703,-10.352076036210462,-12.166127465136224,-14.580103379080446,-7.668409751514842,4.512902624617172,-16.716599513430435,-11.003912632626504,-13.749169417091576,-10.53599317278821,-7.167331962202896,-10.146064769276137,-17.25560148523369,-6.93190567704244,-11.37721041962236,-12.239006624582167,-9.732530845107547,-21.13977676773681,3.44486069822009
-33.49898207098511,-25.94830589722059,-25.40733844638963,-21.92680697332622,-21.86768782905629,-26.346629326955725,-19.80280751188603,-19.67204021343374,-16.23815312979029,-13.412016378896334,-10.77988698339908,-25.67765362458483,-14.933505217578162,-13.64247329836351,-14.642417278263999,-15.038478142886508,-9.580690683781427,-6.204155226480399,-12.179478988829562,-15.273026464237484,-11.010452534138867,-13.553242880006993,-5.284457111769506,-8.863280197665473,-8.399128552597753,-10.833019451899846,-8.107615630074498,-9.068236950941516,-10.080369007802387,-7.352626050733916,-8.168153531621984,-36.20013847254954,-3.7602454384998154,-5.859540210041079,-9.65473405528111,-8.66265480103098,-50.898528008283996,-10.56121597658882,-12.28315783866385,-14.02578799178181,-6.802391208063382,5.807171219699225,-16.696881577479314,-10.344831516666304,-12.89621821638708,-9.440547602938869,-5.794132988508631,-9.157665138067847,-17.29550527495048,-7.363558937188067,-11.13255748430739,-11.28137665177637,-9.591693010920366,-21.991024642484618,3.7726087568145914
-34.37800625529188,-27.006751848666962,-26.654328937086113,-22.770883704442372,-23.231394596887867,-26.93165573830822,-20.6781875851177,-20.292887056174493,-16.211248748978807,-13.763772791733594,-11.278001919194075,-26.49760628530606,-14.938248670921604,-13.59673351851616,-14.518007724728438,-14.977668344480865,-9.497559249826411,-6.301313807207194,-11.193057308161674,-15.516597992686537,-10.717124559046919,-12.610027802623648,-5.55363332475942,-8.711928455933636,-7.957551029361116,-10.196233766176963,-7.201025585083544,-8.035013086869496,-8.331078013554686,-6.920179466349697,-8.310556224184705,-35.24229990312936,-2.643466729923542,-4.709684212219276,-8.769839488328447,-6.570247672228348,-52.680606488048745,-10.759419896445273,-12.242434723549573,-13.084305189135186,-5.8570963972622625,7.382248356036739,-16.112340176877485,-9.155165731369008,-11.717938227350183,-8.240064427548946,-4.08025248585434,-7.963378632398982,-16.415264747409125,-6.826809854010988,-10.430777045103145,-10.071279773804763,-9.12205046539337,-22.211303446123402,4.6155232856255815
-35.78287036262928,-28.52878731475433,-28.25378375932649,-23.90415195987561,-24.539016336886665,-27.628608941611866,-21.943532402755054,-21.272217415325137,-16.360351424561184,-14.425690093071783,-11.803606146504901,-27.47304233806473,-15.29342203440612,-13.773935649906747,-14.65590487700345,-15.00338071624209,-9.516209876392367,-6.186294138897901,-11.372398171071342,-15.654421321048543,-10.602746853189476,-11.744484498815961,-5.610539747283073,-9.681339905313704,-7.642672100501785,-9.380325052638984,-6.204251690816655,-6.879121166407212,-6.269279810965359,-6.637434017652324,-9.28549054180509,-34.43044683395857,-1.2933577231945534,-3.4096973731659923,-8.063344660355497,-4.4146083901494535,-54.676138657085694,-10.708993721024138,-12.112071713560582,-11.827646347348917,-4.794312645964585,9.166350845107047,-15.099959268060275,-7.593462791208593,-10.298979168883651,-6.973583401421533,-2.1357351758464196,-6.631502767486633,-14.740681513823652,-5.316878492787734,-9.242775781113657,-8.683836542477648,-8.224327376980796,-21.595138028453785,5.951269812959648
-37.622488486980366,-30.443474420317745,-30.0807469298518,-25.297856816035925,-25.658658263434614,-28.418233157509793,-23.54894407394333,-22.587474896060773,-16.726133893640522,-15.375246093657045,-12.335802812496826,-28.489627399375696,-16.140227036958052,-14.293518879804024,-15.118479242806078,-15.199005936441345,-9.74397665046715,-5.962989373512578,-12.790322367056877,-15.903872033307044,-10.67757177740577,-11.205181889767303,-5.523392747665217,-11.652780925210434,-7.588821340863629,-8.538587717392806,-5.269169779384427,-5.734800905121247,-4.321114879906117,-6.592730950262036,-11.09835123991591,-34.03594773658652,0.061801552062403786,-2.135532292899027,-7.526868827300474,-2.449258712167517,-56.76210917858913,-10.282545446362876,-12.05876705304551,-10.486518257823302,-3.709480974188419,10.955668260115637,-13.887804823823632,-5.93317531578723,-8.809008493349577,-5.725825606673242,-0.14660481933538172,-5.25310342774602,-12.572806204686248,-3.104679195706755,-7.6972142385054685,-7.259184121938155,-6.919084922727178,-20.18718731831836,7.613107306790905
-39.734552388698326,-32.623255228036555,-32.00635351775419,-26.878836655299747,-26.529748450973766,-29.278050680028965,-25.407293779525485,-24.17380757880214,-17.310116516571668,-16.516050611287245,-12.863250945891988,-29.440380000498536,-17.523122594779046,-15.225952114406972,-15.902059339935487,-15.622021966053016,-10.247276879094448,-5.770403033647295,-15.216201583099412,-16.422743438516058,-10.972694791758382,-11.078563400128191,-5.403031304274026,-14.379522953626262,-7.893149430574222,-7.897149955331837,-4.577207903406836,-4.778538327486788,-2.863452417617708,-6.782547571978269,-13.509741645684292,-34.25279570052817,1.1339114773545607,-1.09760003094692,-7.146907113666153,-0.8961748712506741,-58.773005706083616,-9.51234752467646,-12.244073930993611,-9.342144502602542,-2.7639040689084786,12.49666296656466,-12.664921296808618,-4.421203975970267,-7.403692240963341,-4.56962438160785,1.706673026542299,-3.8905738609684675,-10.231758595483905,-0.5857621316618754,-6.001270810819687,-5.9216454687587525,-5.302678175283026,-18.208399011946803,9.389015227439717
-41.92661231100936,-34.89855105041579,-33.91776764812784,-28.541340399073952,-27.191844420371783,-30.181519356693325,-27.39743763445993,-25.92200560622276,-18.06161710465191,-17.70189361376056,-13.38326798462871,-30.252443834156924,-19.36063793174856,-16.554448946016514,-16.926371932850767,-16.274436769645774,-11.011728879939179,-5.747218578762518,-18.157870322080694,-17.22717829009421,-11.50510814755124,-11.271034090716087,-5.372527782721467,-17.499596112895233,-8.548561440657066,-7.646234884752332,-4.247911451768927,-4.15402825359014,-2.0980841420290792,-7.127159801795097,-16.04594936623316,-35.09217055674084,1.696485815930016,-0.44401576380126206,-6.881547681422324,0.12669873416379973,-60.388167780502975,-8.57171321804424,-12.711776630716551,-8.5933599846087,-2.080454965040002,13.592338674463601,-11.505089994643148,-3.180991782138647,-6.161729432607363,-3.539002967902592,3.3025156778404923,-2.5618489176695185,-7.942858756586012,1.869399550885325,-4.36221675551155,-4.729242505826987,-3.5026353906150995,-15.949616906577909,11.1102734559684
-44.026990071405415,-37.09035343590273,-35.733694699173114,-30.17198313407528,-27.784451744086848,-31.107905022176755,-29.386219826852216,-27.700581677307646,-18.892338409760796,-18.78656948775412,-13.907436018251193,-30.912526865126598,-21.464972378348076,-18.17084725449849,-18.054189641796253,-17.103064975756133,-11.94562456557168,-6.006838705441522,-20.98576721563887,-18.181673585584633,-12.255667860709249,-11.580110022848809,-5.544416748279688,-20.567116664660873,-9.430260565118433,-7.8631226952070925,-4.2916088445215,-3.9237990117674624,-2.0084197203466987,-7.536809972867407,-18.103120047521678,-36.35915236762945,1.6598662110329396,-0.20488680481345467,-6.658067824367734,0.6298175234248551,-61.81225765990255,-7.717897067557171,-13.345531282105318,-8.27638263636685,-1.6771769350150814,14.171448245829925,-10.368115625661886,-2.19980450858844,-5.082702158838837,-2.642668120962367,4.5839024727017605,-1.2698012900912148,-5.79757776292531,4.005334478294013,-2.9399303441541327,-3.678888109859404,-1.6494808715985938,-13.682552514921417,12.690464329343605
-45.90809010460934,-39.035145720565055,-37.39595860152413,-31.669079124935994,-28.50815699735423,-32.041638048011144,-31.241158238877166,-29.37878126831434,-19.706301047316362,-19.673391530870045,-14.467805104523332,-31.4618557738973,-23.588143025949382,-19.896445039965762,-19.128342859075993,-18.018108346248376,-12.914707372954895,-6.61550785055281,-23.10615228635679,-19.077329860366,-13.180521608141595,-11.80052555220698,-6.000848934280256,-23.1152575141343,-10.342476795091597,-8.49799176089079,-4.625207998573815,-4.065546916175633,-2.4068078676332076,-7.971163201491886,-19.125672867574384,-37.71737614848257,1.087677910989031,-0.3012373376977613,-6.407720718408729,0.715126173675253,-63.07419410499923,-7.2091484119773845,-13.906221550960051,-8.271555667704371,-1.4629577345594083,14.292610208240461,-9.157135827102607,-1.3795942138381376,-4.1257232458162765,-1.900594022480678,5.540730356081491,-0.028807362800364,-3.7811223878287006,5.706747997224337,-1.8374977052720047,-2.74761845874494,0.1356662659322323,-11.609337029252167,14.108012980834879
-47.489878537807456,-40.612568441693654,-38.855531941633885,-32.961745806483805,-29.562410961189062,-32.967417969152415,-32.8478033921917,-30.849718419622985,-20.436376251871422,-20.356434112286415,-15.121220812182816,-31.971790689125466,-25.487153589857574,-21.531227211550704,-20.02406843150141,-18.930399872619045,-13.799578077962506,-7.579692648742456,-24.116415019284855,-19.743957826782456,-14.226387101219956,-11.819747051681343,-6.778394870430862,-24.742114381818595,-11.094509849485656,-9.40162804820472,-5.122138439412884,-4.494418728719228,-3.037361488831892,-8.461063801249399,-18.784093399185153,-38.79530165586162,0.1660447546990298,-0.6013618982482805,-6.10932051892966,0.5120725587514166,-64.20094049610938,-7.2208529923866465,-14.124999317940176,-8.37331670652506,-1.2904801288733967,14.096818918152707,-7.820420722361305,-0.640081112060967,-3.2855385557879546,-1.3888383213246747,6.15706535949551,1.0971069992566158,-1.871553756038831,6.944173381879489,-1.1292409062505522,-1.9552037021800253,1.7255091776785028,-9.873490349201688,15.341293279010678
-48.71475792773515,-41.749170928720204,-40.0489684973955,-34.005409976559804,-31.057444709424434,-33.8505102495342,-34.112628690252365,-32.0379867696235,-21.061069278688155,-20.918165234914486,-15.928364500307865,-32.49632506101202,-26.972028693867163,-22.900953906285825,-20.681088283868064,-19.776735332246712,-14.553406179471702,-8.844506345331542,-23.904408377323353,-20.135099441140994,-15.347969522307036,-11.669813823935518,-7.8596637797273745,-25.202791884131585,-11.581275297770805,-10.398003736290145,-5.689185030915542,-5.115955978520617,-3.6956096596125647,-9.09553894312598,-17.101359796837695,-39.323782888389616,-0.8849636314259932,-1.0039588822483974,-5.82919954577674,0.1011185453234229,-65.56309098020117,-7.793699541450769,-13.829358814176665,-8.401824688824234,-1.0523930644734834,13.719601396610493,-6.4217804631869555,-0.005888001360891515,-2.6488321684217104,-1.2514388920016528,6.371529152010398,1.9838720423329863,-0.1255847337933762,7.697034553131259,-0.8911951611709146,-1.400851085392083,2.976236759995511,-8.593388448388453,16.311566162507887
-49.52760811059605,-42.4165940533247,-40.89589396550778,-34.77898129473438,-32.95713354953123,-34.63001361648329,-34.96990098000759,-32.90314764672277,-21.614805790872765,-21.500271528823372,-16.93554350110921,-33.03811136380847,-27.94176793280823,-23.904289116620564,-21.122480280701883,-20.541030004644607,-15.213584686139207,-10.288080547178073,-22.65408097714983,-20.344784671130782,-16.510030625218647,-11.49435649701197,-9.159348863018238,-24.47897721989729,-11.81997763715397,-11.356819352493048,-6.320124855374324,-5.87302621374173,-4.30416903923434,-9.953861506511156,-14.47986559220457,-39.228212682326465,-1.8931297552183004,-1.4980820251767564,-5.729650934608914,-0.5266132653346047,-67.22825123596087,-8.819673661757955,-13.026502728789978,-8.293105731227234,-0.7587316219356093,13.216945361765909,-5.15704136212338,0.35943768257246234,-2.411823343294607,-1.6849129101801315,6.066106589944264,2.46872408329386,1.2803898145288448,7.8919347309583,-1.2271630631132524,-1.2698762940655666,3.7185138000739633,-7.9080874903892,16.845236714860526
-49.880408424692604,-42.638739217002055,-41.32541512330313,-35.28977894105799,-35.078055697976836,-35.22957602046188,-35.39813907866024,-33.442026931744714,-22.181254903683143,-22.259951681408428,-18.159999986468797,-33.544030565709846,-28.4001221600159,-24.542843703459365,-21.45414048637446,-21.264009275686227,-15.88818503997358,-11.73850064131857,-20.778351661589284,-20.57053803026831,-17.687330960095302,-11.478401736579107,-10.538920975410914,-22.817459433634014,-11.950508619050401,-12.24486663682615,-7.112262187912673,-6.772867021117652,-4.9350734928019495,-11.055301372686667,-11.617119837173366,-38.64974125570407,-2.7942545093976268,-2.186260555077099,-6.043312975873308,-1.466757776414554,-69.23021067841586,-10.09237850060716,-11.922052581086458,-8.139357461571077,-0.5774023709510177,12.524415456221917,-4.3119523034971206,0.18781433177819862,-2.851810198648363,-2.894210863100114,5.08210894799201,2.3879040087128387,2.066865273120312,7.381315381183369,-2.270486158355564,-1.8011443778010232,3.763303788336512,-8.006412060907778,16.68338356006523
-49.752089060384236,-42.48991796229663,-41.31290001063447,-35.57119257542537,-37.130884491262755,-35.56984572367945,-35.42706452488517,-33.69037135998565,-22.86285258418354,-23.311922632975673,-19.570436248960046,-33.917211899057904,-28.440367075037862,-24.919454185044174,-21.833486042506873,-22.027006901169585,-16.71645833727455,-13.008754567682216,-18.79952088233739,-21.0264691079633,-18.864884957235642,-11.766340806317979,-11.831535321271277,-20.702881262394,-12.19295229044308,-13.140752911617367,-8.242550182614758,-7.8900537457702935,-5.768106079599506,-12.319445545991037,-9.323303086516164,-37.903560146484686,-3.6563894535552226,-3.259148597291691,-7.0192471485890495,-2.8657866209653995,-71.224344684426,-11.37439653458891,-10.8628639993996,-8.161928123136775,-0.8071371406538752,11.462833445582419,-4.15835157617488,-0.7906538369087541,-4.243679498330235,-5.023712774073338,3.2782162612110324,1.6319443472757578,1.947071640332127,5.992718595388397,-4.14971594014207,-3.215495038541805,2.9418729730388646,-9.095673464218455,15.552476576016954
-49.194690089639735,-42.095980869960556,-40.92313099511587,-35.686251628042896,-38.80649772660743,-35.60520796265909,-35.15222075409803,-33.72984592967822,-23.752574045057845,-24.687816191991626,-21.084239146155927,-34.063358220251814,-28.22668651469758,-25.217662282429664,-22.431508356107646,-22.93090151336859,-17.80572780237699,-13.929630165625262,-17.209229329170626,-21.841821304819717,-20.02683018452372,-12.387310517162486,-12.865881284033557,-18.756790082924226,-12.767567054100063,-14.197526432268244,-9.896040091218762,-9.33520252018564,-6.995416178946643,-13.553296597469132,-8.291018601932732,-37.36666146907599,-4.641555846646009,-4.921098388806481,-8.850496313944056,-4.852897112952382,-72.61030065168637,-12.4541206216359,-10.208209599350337,-8.619308034092622,-1.7764863534072197,9.804362888493593,-4.858738517558425,-2.7375738936658993,-6.767740962327817,-8.102249770399256,0.5927175820139223,0.17805483206640416,0.7370595194205949,3.6100245461911475,-6.939194216158845,-5.639787585306857,1.1533988588277593,-11.335768873960443,13.259289094239211
-48.37571759268348,-41.63817470763256,-40.33666468915092,-35.73478015047856,-39.88058250325876,-35.36096915213404,-34.74383882428478,-33.693920181509014,-24.915863636976198,-26.331425243557323,-22.584079071012965,-33.94920915043953,-27.96771426659082,-25.660489631319322,-23.399976694614526,-24.074809049210067,-19.182705275458662,-14.38320465079012,-16.364895946768552,-23.01097389733834,-21.161289128498776,-13.241301739540193,-13.503491893808317,-17.600284260511486,-13.828567047991791,-15.587404904193237,-12.193030274759439,-11.211628493569613,-8.736023594860416,-14.516481311812957,-8.89692516801714,-37.357146973769815,-5.942896524308797,-7.310376258652992,-11.610047084682467,-7.475452119086809,-73.05176136359424,-13.209089983102844,-10.205546824121676,-9.706332204109769,-3.7289753455528993,7.360333149016387,-6.4146273631901565,-5.636113867365136,-10.442449165014528,-12.026236529346328,-2.9234115805508107,-1.9156653319574741,-1.5752790998854336,0.2392437815284617,-10.62277242363285,-9.061724165969256,-1.6039479096253695,-14.771289239780018,9.771416373975146
-47.58401438278438,-41.34418840990516,-39.838543781184484,-35.85210138491048,-40.29231527384545,-34.94963036231787,-34.43321769467045,-33.76850855979819,-26.385428126868103,-28.12450431434405,-23.947067085019903,-33.64162844663862,-27.884771012850777,-26.462754968367648,-24.843680910775646,-25.53754456564981,-20.778153351614602,-14.335656881777581,-16.426841826548202,-24.396649161340413,-22.277176513383008,-14.148980118936603,-13.668470046391601,-17.700441413953357,-15.421014591129639,-17.44557044639604,-15.14760907892265,-13.5796675638252,-10.990143441603133,-15.005495204262925,-11.08921724348627,-38.05048202335898,-7.718177339149067,-10.447150437293272,-15.222375410410223,-10.675085267167299,-72.06161056938834,-13.629836231705916,-10.916920955608646,-11.483412667299678,-6.732803991940475,4.050494972028359,-8.66883554228887,-9.285238008543573,-15.10151714388352,-16.582153533273104,-7.108699996716112,-4.541764068966939,-4.815120657167421,-3.9617062029990935,-15.082978737065282,-13.329764504975419,-5.222231320597005,-19.282181264514318,5.247438281115817
-47.19096135909797,-41.45703174401862,-39.76314459155895,-36.189185664778265,-40.167614028175294,-34.57074744389483,-34.47683770765639,-34.16981575896793,-28.165117885173576,-29.927975215537153,-25.074214312558333,-33.31751865043029,-28.18048793403152,-27.78490025184145,-26.802987421143353,-27.36508650469919,-22.44872503367463,-13.850068925523374,-17.354597880223633,-25.789963325622338,-23.41583714064118,-14.93058261749981,-13.366853464096067,-19.24737791033236,-17.47654315677229,-19.825734572406827,-18.661442971891834,-16.433013005807304,-13.638804152027244,-14.931362708496131,-14.401914995472412,-39.44581722261231,-10.040468866941238,-14.22004325084283,-19.483895780957184,-14.305497621095697,-69.81003462076907,-13.789479568483284,-12.215030761683147,-13.862735984659464,-10.644911924730591,-0.06428608374813738,-11.373878120173634,-13.366810066923337,-20.428381478104114,-21.49384875029683,-11.727042629926887,-7.582145329262747,-8.674565139766322,-8.708208341919077,-20.106736045533374,-18.180827642547897,-9.491208626385248,-24.575718127446645,0.01581196009889907
-47.57246506729328,-42.194975714357824,-40.41850490874266,-36.88938610631712,-39.78459078626693,-34.47958807458001,-35.10870842463082,-35.10917424741143,-30.245459138909546,-31.634115005705798,-25.915888878079098,-33.23559662557283,-29.005582885098075,-29.70173456765442,-29.255852339286186,-29.56714517340597,-24.02255317028394,-13.070877728438461,-18.961108901211148,-27.012196066595813,-24.652749866009945,-15.482062155391201,-12.688731557527296,-22.10888913188112,-19.851701616386574,-22.68952612790916,-22.554945113587,-19.696890777642047,-16.493502912215117,-14.369940296350187,-18.10003740453633,-41.39800923944335,-12.883775416994878,-18.41813679241182,-24.113330173662177,-18.174691611756412,-66.90769735557535,-13.810998409537008,-13.855802708195409,-16.652712133865798,-15.148689680409626,-4.790334345315267,-14.28722880376004,-17.556325231841015,-26.030887711589575,-26.488738882057362,-16.528187304478546,-10.941030540503023,-12.818636765350064,-13.666905286182297,-25.424823238333175,-23.304691376800704,-14.139402056721014,-30.24301762209491,-5.506001161242118
-49.01594435038754,-43.71801958526551,-42.014629087414235,-38.06779983769812,-39.495029669203234,-34.93906332697996,-36.49697392134345,-36.7570587383116,-32.62145415174804,-33.20668958344635,-26.487241058588804,-33.68073201113509,-30.44040507406301,-32.196689847418085,-32.132180139047534,-32.12436626073253,-25.35784236848136,-12.197617013441134,-20.982692482403095,-27.999192044833272,-26.089397670475822,-15.821698367059962,-11.790646278488172,-25.870135050094966,-22.380195543364017,-25.925622720986613,-26.625156730199286,-23.248894792386768,-19.371590637265772,-13.55861747816434,-21.392133687366986,-43.68797986620477,-16.13784629526903,-22.79707734447186,-28.82184218343099,-22.10833023655471,-63.72994740861462,-13.843458628595705,-15.590291602072455,-19.641777921042674,-19.85245268365057,-9.853831316986106,-17.25810592458904,-21.6300524363141,-31.530930090959753,-31.352039672949612,-21.305723230214028,-14.556358474779353,-16.993450649354678,-18.549531755064905,-30.770057135952577,-28.419938822162866,-18.892419042744947,-35.861605684746166,-10.925207379534374
-51.63899430284903,-46.097011566151565,-44.6106179160512,-39.789308273665284,-39.62818311837351,-36.167633968330314,-38.70565952356615,-39.19797551540299,-35.294853013757596,-34.688594860714666,-26.867849869485127,-34.893349780146494,-32.48181117586937,-35.17079763606254,-35.33125632593443,-34.992628875514576,-26.392750501185763,-11.442526938518125,-23.160689459490992,-28.84050140299869,-27.83271827564336,-16.08062750893953,-10.865576157429254,-29.958136211293812,-24.92684179826611,-29.385807242270594,-30.702949286089847,-26.94637168144006,-22.15543447343811,-12.840394249052718,-23.66744787700131,-46.11037766960186,-19.651862988673308,-27.143874794154492,-33.38428861547785,-26.000875117946904,-61.21158602584682,-14.022751135808685,-17.28076500105972,-22.689392951346143,-24.4083699432366,-14.97628022809742,-20.26398176278496,-25.5136343720768,-36.6318071766858,-35.936208919237316,-25.92520385271113,-18.37492559293278,-21.08527371764189,-23.173029239402517,-35.90950531613245,-33.30684286998752,-23.51492250075893,-41.08419159144022,-15.95011391735688
-55.34942090466715,-49.29549689672788,-48.10249889161724,-42.059864966624744,-40.4064654570384,-38.283342322900594,-41.67771280519207,-42.40005687890701,-38.26399670651121,-36.18191074697685,-27.18491725330743,-36.99962917987126,-35.03561947266412,-38.46778862365772,-38.735605371605615,-38.10429573774422,-27.163840012479486,-10.984531166093172,-25.316159194651494,-29.758282704397374,-29.958430007800832,-16.44506272047817,-10.106362700729864,-33.80867864246597,-27.422120675347692,-32.9241972944959,-34.684401733525455,-30.65237779038098,-24.81611125377441,-12.568074073714037,-24.698496387168394,-48.54378238960508,-23.273629748646208,-31.316481435756018,-37.6737370159695,-29.82124596155697,-60.18363088219105,-14.44244311341628,-18.96366566115007,-25.763949742365313,-28.597774827011058,-19.928063806926424,-23.369246345526623,-29.251238051910608,-41.14098416057796,-40.14050657924473,-30.31631777220043,-22.31585958129105,-25.10260696451178,-27.46527403777376,-40.65300880568102,-37.81034525792509,-27.834669201835904,-45.69352665132559,-20.41837802075347
-59.8646507902933,-53.176455102145866,-52.252940309871235,-44.82746331998716,-41.898104905034536,-41.27259286055849,-45.24958052758577,-46.21431959184637,-41.50284165266785,-37.80387309598206,-27.582875511048712,-39.9747190538267,-37.93276663074252,-41.90662451165877,-42.217554817949534,-41.37195742582294,-27.79277216035182,-10.940023772943256,-27.38162712178157,-31.017325846064594,-32.47530292454904,-17.080699075648496,-9.672638326589436,-37.00885198717565,-29.858292957957218,-36.41643386859516,-38.524636149795775,-34.248586333865,-27.392482452799943,-13.001091892867436,-24.70241542321503,-50.95742931124165,-26.863847003450758,-35.24124832360088,-41.64941099017785,-33.5813138886373,-61.09062425252356,-15.148923150862796,-20.812476473090758,-28.915909227216346,-32.35415639239104,-24.54869628487825,-26.64692859787608,-32.91867353051834,-44.95775851027568,-43.87450035548996,-34.434124148275195,-26.246617555845592,-29.10158415424185,-31.42479722996319,-44.84800495619554,-41.82546239631984,-31.743437954278786,-49.614511362227624,-24.279821957063923
-64.78558150667565,-57.52857001691845,-56.75657518684684,-47.9926995854174,-44.02352604270501,-44.9867642972152,-49.187077210227585,-50.398934545983806,-44.94086570100054,-39.642505549489094,-28.19476657260288,-43.64352279255888,-40.961871998422396,-45.31109391089493,-45.64773836954814,-44.68848460836178,-28.44382244595803,-11.338482569231502,-29.39051802525348,-32.812043819551086,-35.30328823277301,-18.06756623597211,-9.662664435166839,-39.37819100939247,-32.257343459421236,-39.75832357571897,-42.200378917129456,-37.63570779136675,-29.9373871163215,-14.232624007109106,-24.248469610783452,-53.37702299388087,-30.29338405322155,-38.87798589584354,-45.315509640433206,-37.28420939595254,-64.26693584746775,-16.14839082462111,-23.03900915956095,-32.206167362942374,-35.72242106322658,-28.73789317411548,-30.096090601699025,-36.52279394354446,-48.042804579343645,-47.03091139653194,-38.21498530863155,-29.976305304821096,-33.09207997257401,-35.05090634501883,-48.36825977225684,-45.27079941708832,-35.17536993184278,-52.873060704351914,-27.542826299031475
-69.70050028821437,-62.10492915992616,-61.31363055418356,-51.4292120864651,-46.604124544232945,-49.162190068504096,-53.23642656751739,-54.66791701675165,-48.4561402194191,-41.72907677810354,-29.120060356742485,-47.71570713013053,-43.91231176067285,-48.535460270923,-48.90386303795561,-47.93336017426996,-29.271661736617478,-12.11854299788964,-31.43743469449622,-35.18565884258145,-38.28119991998861,-19.377680088839917,-10.098763549500745,-40.96995234527836,-34.63541747642037,-42.86070062900993,-45.67163668912504,-40.73414530695588,-32.464627742897065,-16.17256493415372,-24.05715673070423,-55.831005315535485,-33.42951963481631,-42.18526252150099,-48.67761776666583,-40.87922021947222,-69.4903862645402,-17.412128874209163,-25.775414479498593,-35.620644968492265,-38.780370963663636,-32.42903759993115,-33.591828036029554,-39.94158865686318,-50.39383557338059,-49.49130104421767,-41.55247815099848,-33.282516151486334,-36.96797933867205,-38.286651143000874,-51.11372726107945,-48.07713681535504,-38.08447163110558,-55.530862159349894,-30.213522870412028
-74.27810841266123,-66.65642658860975,-65.67479391934732,-54.992695558984295,-49.426023948849966,-53.46738385991487,-57.168093179340495,-58.743194179371315,-51.87731341948609,-44.02294154296536,-30.403221350800045,-51.848846116250826,-46.61324965455297,-51.4729793975802,-51.87195344695404,-50.98070196740408,-30.379368554110375,-13.153707173363296,-33.623041096134195,-38.00087468376304,-41.20461667209747,-20.902580806593257,-10.930654192713071,-41.99875127416006,-36.97699173848585,-45.64308171213329,-48.86035187813597,-43.48284147133593,-34.91750568204162,-18.58253029561984,-24.74288787158581,-58.297431177813856,-36.136026155202345,-45.092549553773296,-51.706716193136614,-44.24057195623347,-76.48147442012691,-18.865187415588142,-28.976541851601816,-39.02134273583049,-41.56362356207016,-35.56648098637531,-36.89829215744621,-42.92720478566972,-52.03194658314213,-51.15548737464947,-44.30050615441183,-35.963314128281525,-40.500123435431604,-41.00581486071223,-53.02247003805658,-50.19323197477869,-40.4255929788322,-57.62927218563142,-32.25787358919402
-78.3248642817161,-70.9578287670626,-69.66502441578672,-58.525779889057034,-52.299694730753295,-57.55825476522313,-60.803754728749496,-62.39867455303859,-55.00613072601426,-46.42073508524198,-32.02288437114807,-55.71415922106583,-48.96597354875479,-54.05239578371207,-54.45071711277299,-53.70434868937241,-31.789797936163087,-14.27825956728565,-35.98933202205469,-40.96868224589925,-43.87285724671119,-22.503380581696533,-12.043808571504645,-42.720321842311016,-39.22217570091128,-48.03084002654031,-51.64649485428035,-45.838477691514534,-37.16877541394919,-21.143668288118484,-26.586920792071375,-60.68132503404248,-38.283173485775244,-47.49790243815664,-54.32431789828263,-47.180981998108805,-84.70683331089714,-20.371638076258968,-32.39294063311039,-42.148770199870306,-44.0223138782068,-38.09280474203793,-39.734155050294,-45.182129618460294,-53.00623266237331,-51.991953656934925,-46.30981498865527,-37.88524749575068,-43.39467605637459,-43.04651619466589,-54.09294749034305,-51.606425232416434,-42.145964349700115,-59.163332495218455,-33.61299851588754
-81.79337231737733,-74.82551417556243,-73.1772774008424,-61.86485724095468,-55.09201754630046,-61.13740319252869,-64.02770639888257,-65.48739603457587,-57.65370726558561,-48.783381270344385,-33.8942573617142,-59.05813280473038,-50.95768769663007,-56.23086953215162,-56.558755454076106,-55.992254159419325,-33.44274353322397,-15.32047529798383,-38.47338726699068,-43.73621711607037,-46.14273780545982,-24.063093067861992,-13.279921290482728,-43.32120421340526,-41.2835500150974,-49.96753476840428,-53.8961560230641,-47.778176316414935,-39.05379414411042,-23.536350772819166,-29.423682577446105,-62.82918145667083,-39.773952453290065,-49.30057470300637,-56.42632043170012,-49.50532621785018,-93.48529318137707,-21.73293556924591,-35.628016197401195,-44.69004035430931,-46.03331128761148,-39.96270878869634,-41.8675905724182,-46.48068456138152,-53.411549997357724,-52.07619527715015,-47.48055158234842,-39.01013367375839,-45.39370601100907,-44.27885765143625,-54.40122091592835,-52.354810959964134,-43.19781445195249,-60.08976303595767,-34.22095799578193
-84.7367275556108,-78.11795455629753,-76.14111997189043,-64.84284305162234,-57.726755106200564,-64.00842028652717,-66.77756163955057,-67.94425105564989,-59.67496672707256,-50.9630306990148,-35.87572136779763,-61.74486517839998,-52.64610268507807,-57.9863868214724,-58.14012795283119,-57.75887017061141,-35.21438905902661,-16.147311422496276,-40.90299480758056,-45.99756964290716,-47.95945969227274,-25.519779759711327,-14.473532051834239,-43.86514402109333,-43.07990687783937,-51.43268113278624,-55.50604740028971,-49.29832278664197,-40.42003997738663,-25.507071045568015,-32.679815659434965,-64.58068816862033,-40.59306823593959,-50.43871403565322,-57.91714110308659,-51.06917940221141,-102.36758646809366,-22.706178334485518,-38.25703724495568,-46.388037040513375,-47.45506931788876,-41.16695330054319,-43.200937327511674,-46.769535619170895,-53.39355048422803,-51.59325513411903,-47.80631146250196,-39.39210910958057,-46.37939730959616,-44.676766924239196,-54.10062618340828,-52.52655947053636,-43.56088295479319,-60.374943404929525,-34.078966536021454
-87.25725473498437,-80.74452904464884,-78.50966343547219,-67.30687063970778,-60.16898843097156,-66.10906529238343,-69.03102611383002,-69.77803409173208,-61.00160687298718,-52.83128744036703,-37.7883507233366,-63.772503698075965,-54.14103418861073,-59.3213242066575,-59.17552075690604,-58.95957573970548,-36.94524782551505,-16.692452539766037,-43.02486911349363,-47.58606222856931,-49.35859453692119,-26.855079573117123,-15.485748763540045,-44.301955220142744,-44.569581599638774,-52.45404494438602,-56.4362420104689,-50.40937612352602,-41.168422195925636,-26.896394211191016,-35.55441661518522,-65.8326127087877,-40.83795880893672,-50.924195781642,-58.74540393320444,-51.822262625635034,-110.31085662139176,-23.0532481116938,-39.964293772642236,-47.139505135975575,-48.19761183822407,-41.74535539587308,-43.80742922778621,-46.21410503551984,-53.13632929936439,-50.81024359810854,-47.39254606975743,-39.14503668294245,-46.432799343845204,-44.359505572681975,-53.40437405056157,-52.255975966196,-43.26874592784791,-60.05989160911638,-33.29319787137231
-89.47147658676984,-82.68394004990485,-80.26279947288847,-69.15125825946991,-62.40311262031205,-67.52778160596016,-70.80110132530778,-71.05787170187118,-61.65912063636298,-54.30319059053597,-39.454568803213284,-65.26947243264317,-55.574129264369795,-60.27328217273138,-59.693216799292685,-59.60838472153394,-38.47571427756391,-16.96976734861422,-44.57622736912587,-48.52958519584234,-50.455778453951154,-28.049694578346056,-16.230259288130807,-44.54115155646077,-45.78170905694686,-53.11442808321798,-56.72963234578573,-51.13053910432131,-41.276986724080516,-27.635714288140008,-37.291636818627936,-66.58906557025195,-40.72123220280159,-50.86106962898653,-58.93548238625205,-51.82896002138433,-116.4373057299751,-22.620070625321496,-40.65135047176514,-47.05551627246098,-48.28395953786672,-41.79794502115786,-43.90448793238527,-45.16548505394846,-52.8271350548669,-50.006079619378156,-46.4402931676468,-38.396295658123115,-45.819352721969366,-43.57419787568909,-52.54146058959225,-51.68777844205783,-42.430900533024605,-59.288858825609424,-32.077344176192916
-91.4666041136873,-83.98941179336111,-81.42015221402431,-70.34513930992827,-64.41357345640927,-68.48444393488236,-72.13026351734075,-71.89330588462683,-61.7596771716627,-55.345295572638456,-40.73538524892239,-66.45262701240001,-57.05956314529109,-60.9204432434266,-59.77257816702601,-59.77883935975853,-39.683312918189664,-17.077556664076265,-45.37932240464186,-49.041803912562905,-51.40523229348079,-29.045352271440933,-16.69956084135263,-44.550033589622615,-46.82155739230888,-53.5416888522306,-56.50759464870268,-51.48660098788445,-40.80430739825095,-27.739754121624454,-37.449261602153996,-66.97954928598321,-40.54278948613023,-50.42733384222305,-58.583977979049024,-51.247973493779554,-120.35317420831359,-21.41843493600447,-40.472744900446685,-46.44331839489114,-47.86437461756213,-41.468618558411215,-43.78083563015422,-44.05525699478074,-52.610375069504386,-49.38858848722411,-45.20255423798308,-37.26021448398498,-44.91293098872815,-42.62809831069011,-51.7031806508531,-50.9350948284799,-41.235500811549315,-58.29785383462915,-30.711042351337802
-93.29258418538289,-84.78647975581242,-82.05934657278311,-70.94614206156206,-66.17100407804688,-69.27209245549254,-73.08239535989776,-72.41369384653927,-61.473602397455274,-55.973517043522726,-41.556598613342366,-67.56723818746686,-58.66811122198834,-61.375705347880576,-59.53613619631051,-59.59329268357893,-40.50903885835364,-17.176805879532683,-45.41276457831379,-49.45295935622283,-52.35137974277466,-29.742145512765035,-16.97272671593305,-44.42120444926558,-47.844137418086795,-53.879588780232964,-55.93884981192618,-51.50819628012747,-39.871845730587395,-27.289448459521576,-36.05635776375408,-67.23000739980588,-40.61846238103974,-49.83040656719658,-57.83677972397943,-50.28444614314241,-121.59729111229035,-19.67206969797039,-39.78710228440126,-45.71648522174575,-47.177557059173836,-40.90549904701156,-43.70596080935022,-43.261173377299514,-52.550022512836065,-49.038616443720926,-43.91931282184845,-35.83444688055931,-44.07952894240539,-41.79719739085288,-51.00201281526341,-50.0604299485302,-39.922554852318726,-57.36486469897739,-29.473354045142553
-94.98432159264583,-85.25870595607326,-82.3208705781843,-71.09558804705588,-67.63009450037205,-70.18827903511536,-73.7428240924179,-72.75383889126968,-60.992223829005184,-56.25203190427043,-41.92861530797826,-68.83280953200735,-60.41425390819141,-61.772968613066105,-59.13470894282945,-59.206803727582056,-40.965488891428414,-17.439091885748415,-44.84612405142264,-50.108638967004644,-53.392904847674636,-30.026755585045365,-17.1844092142618,-44.380800446727655,-49.01378037769005,-54.249694036575384,-55.197614985143886,-51.233309930762935,-38.638329247380895,-26.408821020499964,-33.613018349299566,-67.60227055899401,-41.19096770515616,-49.25219526647315,-56.85299035661009,-49.1341200199885,-120.43115901567532,-17.79691088936095,-39.049631799438544,-45.27436843763147,-46.47820546813615,-40.227753878328535,-43.85495103916188,-42.99574521889898,-52.61568516974876,-48.89906212893395,-42.76894108126703,-34.218617802392544,-43.57074176411132,-41.24556886009963,-50.45740894413537,-49.07850637899832,-38.73881233003805,-56.73148511701194,-28.563312588740978
-96.55864176383086,-85.60617959107425,-82.38497498175731,-70.9834757240478,-68.72983490412332,-71.45714374216548,-74.20735664215594,-73.03137963987643,-60.486572501956694,-56.278967297096564,-41.937300294685095,-70.38829153344635,-62.252583922540616,-62.23428703714791,-58.72209641372513,-58.77481534408272,-41.13275821049308,-17.986424272421743,-44.02662058947213,-51.26787143117989,-54.561968323340004,-29.834048900745778,-17.481799985853254,-44.72825882470485,-50.462448364879315,-54.72047490407145,-54.428644719379434,-50.71817426954937,-37.2857973124807,-25.26475515809458,-30.943351449810663,-68.32437106089084,-42.360313392553124,-48.809844509562936,-55.772718424909385,-47.947975162101244,-117.53192775772422,-16.316903500960116,-38.683304295747355,-45.3855204678927,-45.96256186815247,-39.50900298881601,-44.27776924730293,-43.26197501512391,-52.70348820552249,-48.81576772390525,-41.85079464394989,-32.55305341045756,-43.47075185097715,-40.99004117736995,-50.017087746428686,-47.985003246633774,-37.88982142751856,-56.52836907763445,-28.047505883536903
-98.01057797001751,-85.98888915032823,-82.41884287653104,-70.78856458394799,-69.38992078927235,-73.15959430907864,-74.55537160878384,-73.31854073559245,-60.066849625821234,-56.16096282797482,-41.70631954230629,-72.24990863858875,-64.07949685953565,-62.824099846533024,-58.41754433721857,-58.41385375925342,-41.1364974539947,-18.84200526826308,-43.4019161774037,-53.03071531388213,-55.827548801621475,-29.221379702026482,-17.9759594940834,-45.72939625916764,-52.246854558484195,-55.29134181749364,-53.72656104108185,-50.046308684031224,-36.008687723711034,-24.07396303273643,-28.939669379764215,-69.5272216035803,-44.05017256324355,-48.538356065016345,-54.70232950341243,-46.82280163550372,-113.80172819953668,-15.727725457632113,-38.96927205575062,-46.11660966294736,-45.719413186626156,-38.77941875894921,-44.91428568969273,-43.88176840285198,-52.6800255525882,-48.608806417844576,-41.1813204260994,-31.03589730647646,-43.69884378785375,-40.91913599007945,-49.59744901927233,-46.793139867922214,-37.488556112329796,-56.73246160911643,-27.84630771130342
-99.30868239901478,-86.47993567664905,-82.52345386897623,-70.62309625724656,-69.52287628546748,-75.2112010516119,-74.83514771829857,-73.6295245872351,-59.768278076073685,-55.994513500568154,-41.358506496001546,-74.30488106362726,-65.75797928359516,-63.52703014420039,-58.28096846404033,-58.17935745312494,-41.10364665356006,-19.90356621647827,-43.391542502723134,-55.30767299927495,-57.10774002001758,-28.392875585789987,-18.693050580846645,-47.49683639053398,-54.31992714087041,-55.891581726546285,-53.12899370537132,-49.32034741966393,-34.99459266669368,-23.0880323620157,-28.277329535373674,-71.20695265273635,-46.023439456570244,-48.39388598496187,-53.703205840397814,-45.8085487773435,-110.50443823062281,-16.340470929427006,-39.98739353458494,-47.33053258862457,-45.71858036942887,-38.0447054360573,-45.64793561099254,-44.59038342714351,-52.44060210942072,-48.155101678665176,-40.72069065838896,-29.90472998096077,-44.07482306097374,-40.86427609292294,-49.13577985655036,-45.5699356615491,-37.525154871408716,-57.18530036783004,-27.776742029544717
-100.38443402642706,-87.04303005763451,-82.69841043265819,-70.50145638761666,-69.05611863134885,-77.38815134153842,-75.05684590360211,-73.91621381053889,-59.55920208659254,-55.84744088939651,-40.97773559133092,-76.34632052893903,-67.14949121776277,-64.24819337244534,-58.303712823077305,-58.05810539782561,-41.12107293087903,-20.963890341056153,-44.26415481606444,-57.85099398060415,-58.29568998913305,-27.668803344417356,-19.564325588979784,-49.91296870197092,-56.538406102887215,-56.40723323298905,-52.62851628224007,-48.64835611766302,-34.40760178816945,-22.56340414678805,-29.219743076554572,-73.22917325069986,-47.952500349409156,-48.290025846902836,-52.80673285088382,-44.93929282917209,-108.52746206585743,-18.170342836994767,-41.62497049898997,-48.75566259488157,-45.849532932135034,-37.32194215189779,-46.366073141193645,-45.15450474307326,-51.954361011707924,-47.44414968066482,-40.40998916142341,-29.383512202403082,-44.41360691625792,-40.68490986953104,-48.62739716036778,-44.43791488339489,-37.875250330379465,-57.65422399730103,-27.62395846387399
-101.13114954122669,-87.53836754615584,-82.83497979092093,-70.33821156289932,-67.95305414972381,-79.38440332264469,-75.19003854034987,-74.07931167621075,-59.35957186727751,-55.73826997203936,-40.578676255643565,-78.12274793189104,-68.13184052432086,-64.83207472348681,-58.409756289127415,-57.97447806519214,-41.21124799941547,-21.779208894411273,-46.06136861341508,-60.31916666596796,-59.287671465646085,-27.404553633825884,-20.450969932788244,-52.63928724593312,-58.68879989550072,-56.72410006112645,-52.19524861771425,-48.11912999385756,-34.35908709607812,-22.718162584468566,-31.57643917604892,-75.37122347980133,-49.51969611602516,-48.137126917174584,-52.02812100774739,-44.251455800902676,-108.49720892857653,-20.915666313750794,-43.64062259688427,-50.087984056227825,-45.984559614807694,-36.660470020963245,-46.996449746542936,-45.455003411546116,-51.273313387064974,-46.576144008062045,-40.18911401697619,-29.590187389682857,-44.59978543419531,-40.33056511016883,-48.12618974667092,-43.53951566079057,-38.33093859515752,-57.91669726472338,-27.214209744662416
-101.42413379281508,-87.77112552786359,-82.761351607508,-69.98746292287484,-66.24777499334917,-80.90002798829315,-75.18341059545067,-74.00421911572877,-59.07880024064811,-55.63185297224564,-40.11308994070709,-79.39897115729572,-68.62922436226688,-65.11491136447545,-58.48101126059197,-57.8236018694813,-41.317106900966856,-22.151295241820907,-48.56601838401598,-62.354222941325794,-59.99808256961761,-27.85591458385619,-21.189676956510965,-55.19631158833718,-60.52584695410051,-56.76221981067602,-51.79125180235225,-47.7680354589886,-34.86208187954857,-23.667613073787535,-34.78498296847203,-77.37619063076278,-50.50361233391312,-47.87000519259526,-51.36424416328293,-43.77663561357879,-110.25489368453012,-24.031269162998473,-45.73878922041365,-51.08432618289287,-46.030718711594254,-36.13588044392719,-47.51422315527894,-45.51520202145222,-50.516742152681516,-45.72289226927424,-40.00470479000328,-30.45578477570309,-44.625748480331424,-39.86732165934547,-47.72802512507151,-43.002336693826315,-38.6555305249826,-57.851723821142805,-26.48808425383116
-101.17057986675043,-87.56912528812695,-82.32012979177644,-69.31225433142617,-64.07649352922783,-81.7297581777159,-74.99432695288172,-73.60378617579755,-58.653111500070885,-55.45494728683786,-39.50899418933458,-80.02370500065386,-68.6328623847026,-64.98483143881523,-58.3967253820223,-57.51162096495188,-41.317045918567295,-22.007473007757742,-51.342545384524485,-63.678721995813724,-60.37694216660394,-29.060610694600335,-21.656876250718486,-57.094828406445394,-61.827562792714026,-56.502477142031594,-51.38037960876217,-47.55923839448322,-35.80431423796362,-25.364664968312645,-38.09959384253061,-79.00699155997259,-50.832623526319466,-47.47033650875534,-50.804327888460534,-43.52935186574533,-112.82487032614225,-26.875371949980494,-47.64041030484003,-51.62843947904053,-45.9642030055667,-35.830808240432816,-47.90687684923329,-45.46079940836053,-49.82534111186952,-45.05582314132191,-39.80376326851446,-31.704763674164685,-44.568015147048115,-39.437629084903044,-47.52631434583917,-42.881632156595664,-38.651397504982036,-57.47643909329716,-25.513728987615377
-100.35614517588292,-86.851307939387,-81.44432711118945,-68.25358838628446,-61.67946946529841,-81.81446428517391,-74.6125923624476,-72.86006406518456,-58.068770240479616,-55.124117980445995,-38.7170102518477,-79.9658980636612,-68.1997642377406,-64.42482873708684,-58.07422006314568,-56.99053227878876,-41.07438270416059,-21.451003204184225,-53.856456250694634,-64.15165333484984,-60.41372840640993,-30.791951999970202,-21.82109030674336,-57.982911673536464,-62.435402589761765,-55.99076301382458,-50.93473560373934,-47.38845450843399,-36.94829176332952,-27.58087660146277,-40.82939391008773,-80.08757582932932,-50.59007263765503,-46.96061237505252,-50.32024258600861,-43.476161681897224,-115.42899919881671,-28.893856891281576,-49.12779587091268,-51.733527226220566,-45.8236673848473,-35.79170622350634,-48.13830156239418,-45.44403516365783,-49.316132437343114,-44.67401392950059,-39.52831089544376,-32.90503209933801,-44.529794535457214,-39.19110724941499,-47.56844308372112,-43.12713459222288,-38.21920835999459,-56.93632638169164,-24.458806033571502
-99.07949330849748,-85.67779637353327,-80.21485445763037,-66.88148272815522,-59.379784403326106,-81.25306995730185,-74.08055143256924,-71.85416269934862,-57.38186947927248,-54.59353094272641,-37.763886161391376,-79.31857136046555,-67.45255960356444,-63.53632226480055,-57.5092077528076,-56.292280565183155,-40.491112371528665,-20.738746557749337,-55.61589651857656,-63.78663270247673,-60.13396897475532,-32.59922074289735,-21.757156816448695,-57.74624954847823,-62.28370930283062,-55.319529923522694,-50.43885336229945,-47.112407502226766,-37.967443990593,-29.931061934543482,-42.51512833214639,-80.5215355497779,-49.9658012675416,-46.39183644996416,-49.86039458671272,-43.51665807737463,-117.14187369038973,-29.77802234497253,-50.049609945196394,-51.49693360857398,-45.67665568917127,-35.99618685861908,-48.14978062673947,-45.58602124907368,-49.07343336441086,-44.59237463406539,-39.13117876914385,-33.59400829115612,-44.60057272207841,-39.240727502710904,-47.86006963222379,-43.61712557639981,-37.40140641750679,-56.477516639977196,-23.564765825340395
-97.55383449793831,-84.2478353166761,-78.85654862611003,-65.39474947555522,-57.52439756887895,-80.25909408881064,-73.48593594522312,-70.75613914571306,-56.711036899505274,-53.893088106262304,-36.78001678572365,-78.2681664425407,-66.55550089232344,-62.51644898625315,-56.78760328807252,-55.53195076512971,-39.566231277077485,-20.20662055673179,-56.29981803482081,-62.753812930329424,-59.60960806813402,-33.94799105109761,-21.626739838203086,-56.54019171060778,-61.4270464567907,-54.60861462350196,-49.905975650105354,-46.60972039670638,-38.53535415224071,-31.95471021281339,-43.00981374995202,-80.30332303977261,-49.19110931066362,-45.84182902228828,-49.38084011183181,-43.50938989441336,-117.40753781563868,-29.540023453676042,-50.32200340001198,-51.05564788552123,-45.59803717556365,-36.3640887944213,-47.874011955293085,-45.93685687581716,-49.147300398452714,-44.76052804354444,-38.59512691780832,-33.43865179100307,-44.82369943611863,-39.62894315338354,-48.37993576688868,-44.20257823227224,-36.37701949683021,-56.373272771626745,-23.083368440701694
-96.0529244664621,-82.83657818404713,-77.6693980621462,-64.06722816749011,-56.39434786292225,-79.07845428949213,-72.9259833944757,-69.77785381004132,-56.201374236260264,-53.13515599700142,-35.97359751308861,-77.02956849466962,-65.67482230193102,-61.59403608653704,-56.064155631596364,-54.87517220010914,-38.42904133942418,-20.163047562625298,-55.841066441861166,-61.32994153207144,-58.94965394333471,-34.406476889426585,-21.621551615819126,-54.74208415895087,-60.03042422233492,-53.975006150245015,-49.386417843665996,-45.838824072924844,-38.42867742999501,-33.238405818766964,-42.45224573505361,-79.5130614576988,-48.471114937580445,-45.400807295748464,-48.86754004350307,-43.31309566787734,-116.42096449015912,-28.482425423108968,-49.924220513344956,-50.537629028871756,-45.644802948729165,-36.784298555971354,-47.2763728595019,-46.47585543477984,-49.564584434303555,-45.09874080127584,-37.95254957278776,-32.3619808095843,-45.19306744629529,-40.325653753828995,-49.101885503757906,-44.76461077733575,-35.406603410229124,-56.84125193448149,-23.210439136885796
-94.8344660440322,-81.7118317356514,-76.93158763144285,-63.16928956683152,-56.124976569997564,-77.91007852952038,-72.47371731390321,-69.11228211381574,-55.98730020774057,-52.50131397502142,-35.57289181543123,-75.7814774294019,-64.94793671806882,-60.96135848638418,-55.52582168495225,-54.49661176352385,-37.31515580829841,-20.76868073161704,-54.429723823508134,-59.82723660689029,-58.27815504777363,-33.80463941406019,-21.885467764122755,-52.82743991951533,-58.33544154253672,-53.50438953601762,-48.96213064576729,-44.86926995305823,-37.6072852928056,-33.531021685517075,-41.15811622239404,-78.29978869919134,-47.93152074391003,-45.162047371325315,-48.35601860246534,-42.840545429437235,-114.52643390663965,-27.079302413371398,-48.90007781321761,-50.03436198103754,-45.846976135514126,-37.15967332679561,-46.40760108884263,-47.15234537152118,-50.34866246560014,-45.558842209520975,-37.30149913136089,-30.596990747107892,-45.6883102594966,-41.26518780313442,-50.02779936994058,-45.26785661798128,-34.75952398722247,-57.99237517320225,-24.04971951216008
-94.07116885671729,-81.05712787918931,-76.81040408387649,-62.892384137070025,-56.67029891831168,-76.85909581264266,-72.15805212224858,-68.88139637587933,-56.165483875035385,-52.203114477252335,-35.755316065981965,-74.63216687863543,-64.46228997356408,-60.725272238349895,-55.34753188234355,-54.54085639084143,-36.507114128813974,-21.971314312197844,-52.441296761091,-58.53139912804338,-57.715836647716195,-32.31776201598978,-22.462977015862798,-51.22354989185827,-56.621249756866185,-53.24111123624143,-48.73760432828422,-43.87838564114705,-36.25141404245615,-32.82980021065325,-39.49175560946715,-76.86346304025358,-47.60833855244406,-45.21565765565293,-47.94723563012717,-42.11052191437633,-112.55434476458532,-25.819239197157856,-47.374889362322556,-49.61179275357697,-46.22481452898971,-37.46005188017313,-45.434785526670105,-47.9363007300607,-51.52894731759385,-46.16481162473501,-36.802214311474145,-28.639417627881937,-46.315643875428876,-42.3956132980093,-51.20135585312082,-45.77839519935094,-34.64070166570096,-59.817828163567526,-25.59895883558312
-93.81387766178891,-80.93110100657903,-77.31940620238872,-63.3071157090657,-57.829120476899426,-75.94602406475224,-71.96954717828909,-69.11276000693172,-56.78307052830508,-52.429935911852475,-36.58820239789476,-73.62316510984516,-64.25836126848907,-60.89564467700152,-55.659617940343196,-55.09594953709108,-36.25818624609315,-23.52541201723695,-50.32748846789799,-57.65215510521802,-57.36400712594498,-30.430619365871287,-23.29120854338659,-50.207030357485586,-55.15968228710509,-53.19739661718587,-48.82172866977852,-43.114857728071165,-34.733198558678744,-31.40390525729185,-37.77004395302383,-75.43759894850405,-47.479681951790425,-45.638282208208786,-47.79608586893836,-41.26704780587325,-111.23388847920822,-25.070597201151436,-45.568736270830414,-49.338777687982514,-46.80882838449135,-37.75125704323602,-44.64536671916131,-48.86124715574621,-53.14073389843472,-47.01113273633051,-36.6505175785798,-27.1049559065031,-47.139612755293456,-43.71667667982764,-52.698404283442116,-46.44285844872956,-35.13755625242549,-62.213550333924246,-27.76455155104497
-93.99139658870536,-81.26966146836811,-78.32679783263274,-64.3541278607482,-59.311790885411455,-75.14655548689429,-71.88483322910865,-69.74458979432329,-57.83296889667424,-53.29014641015632,-37.9905095054503,-72.7542762146421,-64.34202144417813,-61.40593573243267,-56.52119463593542,-56.17962129211254,-36.71731310776945,-25.08013280919468,-48.50640083179847,-57.30020343313168,-57.30148986438623,-28.789543961752543,-24.233058760422,-49.8666428311953,-54.17679574726825,-53.38435381868663,-49.309107174402925,-42.84195943501616,-33.52724694977039,-29.738239477094737,-36.242158948276355,-74.27941663999687,-47.52012524351872,-46.488579842001805,-48.078831642274395,-40.55968203269981,-110.89269875223968,-25.01032091768552,-43.807770680644325,-49.32051461948666,-47.65948229179463,-38.192510621073446,-44.38355791374998,-50.01021172302809,-55.19187190028468,-48.21167120702874,-37.01963555908999,-26.532756755110793,-48.26781481300526,-45.26757349326268,-54.57945113228779,-47.41646144538987,-36.19378023931968,-65.0049184204938,-30.37566190362341
-94.45275071507382,-81.9333003258565,-79.62164563157442,-65.87978645415772,-60.843408862521905,-74.44573467779068,-71.89902474693689,-70.66653585254653,-59.26572310267698,-54.769108390331034,-39.74227228285346,-72.02122408336213,-64.704405839316,-62.163963020881674,-57.911981679526264,-57.74718518558526,-37.87506626926174,-26.303097828598926,-47.26758457656137,-57.482337653509,-57.573481486932096,-27.983950884990612,-25.137976827179212,-50.112986160018146,-53.81690221122967,-53.828981635741435,-50.25048408946387,-43.257719282628564,-33.07031830554363,-28.407643869772315,-35.10845907582173,-73.63635448753718,-47.738851171240995,-47.786049220954254,-48.93392218888938,-40.27021842668021,-111.63818538179478,-25.615963659952715,-42.49097097350328,-49.69720822378097,-48.85174188695686,-38.983268515930185,-44.94387834644838,-51.46122467738505,-57.62421144271262,-49.82933939791728,-37.994919655937196,-27.205186645818696,-49.797129170933616,-47.085610186882654,-56.835721594837935,-48.79566868384416,-37.63055449547542,-67.97832377108205,-33.21347137549194
-95.04385876663243,-82.7834035533637,-81.01182855772319,-67.70536832055484,-62.271225660987504,-73.89130344260818,-72.05855028336104,-71.77776265269506,-61.01438978067811,-56.73353263540805,-41.552295643873265,-71.45745812784752,-65.34415930839508,-63.10880495693303,-59.75419908203155,-59.71499938237229,-39.56205917739759,-27.0019446266853,-46.72172920850604,-58.11880183400836,-58.193506477205815,-28.34062191982698,-25.909863990073962,-50.73946754430267,-54.1250436626555,-54.57694897595064,-51.629199269414634,-44.433580270174055,-33.62685105097824,-27.913804441682803,-34.53265462574754,-73.69401286641553,-48.18844180286175,-49.493807344890364,-50.41047859441176,-40.623009819266926,-112.85035934471497,-26.725611748860075,-42.00394390996509,-50.606967834968714,-50.43728318747098,-40.28792286895559,-46.475248060215854,-53.23164930940273,-60.29875138379769,-51.823013890623265,-39.535570150050916,-29.053341107131555,-51.75626230091554,-49.15687841111966,-59.358835686019326,-50.56963024784465,-39.20840848258947,-70.91500376572309,-36.048037602928844
-95.67201392003287,-83.73776693710245,-82.39406727779695,-69.68119552309483,-63.610972031981554,-73.60123357575758,-72.46242529978137,-73.02095101619949,-63.003996067585426,-58.95998447390654,-43.138539811106334,-71.148189822564,-66.26373987912109,-64.23337997132528,-61.92825124817284,-61.974763633471305,-41.5038040892142,-27.19721031556654,-46.81169306121142,-59.07707633153358,-59.155163186246625,-29.81411617672451,-26.550163674709093,-51.50979785590101,-55.05071362597528,-55.68969069814869,-53.36603673305609,-46.30087319248515,-35.21152307942184,-28.544537886656357,-34.64396728920778,-74.53577246838253,-48.94993396052231,-51.51846136019873,-52.4383192703033,-41.71150592155354,-114.07865727022721,-28.11848756901333,-42.62507753018532,-52.13534425154163,-52.410432764015354,-42.170541048836206,-48.89990322869293,-55.21963779042898,-62.99017215046936,-54.01517561302714,-41.46102685190321,-31.670986311718817,-54.04394437026562,-51.36191020987557,-61.92482577293701,-52.58875819280596,-40.68549722143813,-73.58841505528599,-38.64941955699352
-96.33512107498748,-84.7925411880005,-83.78153915147308,-71.71361445319408,-65.02665758244306,-73.72245939035732,-73.22929893357646,-74.39160649932133,-65.15276706104702,-61.187533010895514,-44.304954792470774,-71.20337053333868,-67.45517652267051,-65.5740646354522,-64.28782468585938,-64.40408388859504,-43.39804234499213,-27.104859036250502,-47.365794069390596,-60.19685123484481,-60.422123055092584,-31.99460681914435,-27.151267383571213,-52.22287640988275,-56.456642604539475,-57.20931181273128,-55.32421405002466,-48.66299091353477,-37.57221211497419,-30.283987060807856,-35.50971582315076,-76.10467413466239,-50.08170149283909,-53.70585774999051,-54.81736426119289,-43.44811178881649,-115.26488075313134,-29.559131091865748,-44.42785144714292,-54.25057620593879,-54.666181216457844,-44.54086251604046,-51.89006103199694,-57.18940736273927,-65.41245049155867,-56.11513777375815,-43.47642570831004,-34.43603258670754,-56.406761577235386,-53.46081626079059,-64.22346254171259,-54.59334117120775,-41.870253981095196,-75.76061323864921,-40.80538651560682
-97.10667008677831,-86.00302995219779,-85.27474467870063,-73.7597278352865,-66.74906482859383,-74.36332264577297,-74.44612763893014,-75.91651643620608,-67.36838728508611,-63.18464273440745,-44.993837260338275,-71.71144026872206,-68.878200147386,-67.16736746117748,-66.67597185168448,-66.8671569520429,-44.997478048241774,-27.04797957289795,-48.16775873999776,-61.31491385936658,-61.92782687556514,-34.244750692974456,-27.85222779242324,-52.74488567611932,-58.14279659844157,-59.11249046036189,-57.32462435133605,-51.24410534584535,-40.257356330812456,-32.80948875387054,-37.07279252506741,-78.18428484423862,-51.55823307969909,-55.85439771140429,-57.25597084615029,-45.578331757044516,-116.32782621534102,-30.82563468907008,-47.21331622098651,-56.76338294680491,-56.98861639501842,-47.150987194008316,-54.93368324715667,-58.81981057276335,-67.27708052068351,-57.79397484210835,-45.244940962006055,-36.703348614263035,-58.48360145588438,-55.135112074136735,-65.9266453486207,-56.27693302649785,-42.65415305244246,-77.19898786047526,-42.338325450887076
-98.07364936833015,-87.41825582527129,-86.97053935037312,-75.78454794055797,-68.94615324431511,-75.5171674152022,-76.1001493737822,-77.59194292115477,-69.5258701784512,-64.78806798621564,-45.281183039819176,-72.68131831927923,-70.42753979709774,-68.98062744484699,-68.92153352654357,-69.20039058985046,-46.16943825968997,-27.32782449879392,-49.02246717761103,-62.28503553373718,-63.57156118549485,-35.918242433851475,-28.767691314914828,-53.006381444450305,-59.878347711375525,-61.28024122555063,-59.18066927634306,-53.75693173695921,-42.74581789310043,-35.59073703922473,-39.101592804174075,-80.42999056436162,-53.24357098661239,-57.74478254842394,-59.43603805499705,-47.75043554362801,-117.70517145056661,-31.719797204458875,-50.52780391763581,-59.34431193350145,-59.08489758404751,-49.64905613390081,-57.447637999864746,-59.77883026561625,-68.34258591065974,-58.76398854974714,-46.4642666496931,-37.98511570137865,-59.88186243709258,-56.05842237129698,-66.75535448153255,-57.354412537985475,-43.00095205743563,-77.69190708160575,-43.10719989801609
-99.26208540458562,-89.00830676448318,-88.86555401258695,-77.70812518580851,-71.6091289548749,-77.0162060807898,-78.03259666624534,-79.32355330933012,-71.4517059488841,-65.91676474874932,-45.32949926902145,-73.99650738285966,-71.92067463157028,-70.8592533902307,-70.83553206602508,-71.20781294154318,-46.908217484064295,-28.09291866048502,-49.79764348542329,-62.981823671519756,-65.19948603259489,-36.564092230661146,-29.911298964007383,-52.973596834758844,-61.42489034277356,-63.48044662875781,-60.71643087962673,-55.948734543568186,-44.58012907488167,-38.02857689436705,-41.19512277159707,-82.4297452175687,-54.88850706322611,-59.164906487467775,-61.07715477482343,-49.60339056935469,-119.77403720103166,-32.04981180634549,-53.74750251458532,-61.577510250247634,-60.63493404996319,-51.653700596027775,-58.91460272781443,-59.806969792796124,-68.45063527747652,-58.84729726150876,-46.92979034103669,-38.06839444360726,-60.272933223158645,-55.97479236331307,-66.53369253853155,-57.61931318761691,-42.91486353428741,-77.07970419688044,-43.017365936865474
-100.5881339952178,-90.62482516043188,-90.80332694189246,-79.37989376090952,-74.50934914082907,-78.54807280232475,-79.94728192090163,-80.90500648175507,-72.93452439643387,-66.56677271968417,-45.32426644504004,-75.41917311145981,-73.11654314754853,-72.52390239539996,-72.21866069768933,-72.67301499982003,-47.302965515009525,-29.27088660471733,-50.43470037848522,-63.30607736841136,-66.60408926818228,-36.0650522757888,-31.15622660854646,-52.62761284676783,-62.5583234646188,-65.38351351835162,-61.773453311926424,-57.629582569987704,-45.47870400656186,-39.60685556943964,-42.85943519930892,-83.78606081843174,-56.16558491298637,-59.93469113129011,-61.98830131603899,-50.8540988863537,-122.59212737064985,-31.638565749633926,-56.21776968933342,-63.04535444280639,-61.35512849933125,-52.83620828087624,-59.01471723812681,-58.78760034971918,-67.55019612716656,-58.01327587098844,-46.5795584527246,-37.05028739426624,-59.48485287392542,-54.76822372049518,-65.21885484145153,-56.97599644253861,-42.41377954054741,-75.303899802162,-42.0302375928439
-101.85340603647967,-92.01162007539968,-92.48041645391221,-80.59245894307105,-77.23606191557126,-79.73129976699866,-81.46772302867457,-82.0412949811223,-73.7536573588304,-66.77928908055591,-45.40978342244973,-76.63672866149507,-73.76098597775773,-73.62154865751867,-72.88317746650355,-73.38854211451147,-47.48237262895395,-30.584616198766863,-50.93679831758157,-63.191267444915376,-67.54338990515505,-34.66486120096479,-32.2552330879368,-51.96598680596238,-63.094057520309995,-66.62294030625229,-62.2218342851888,-58.682030785087925,-45.39617543955363,-40.02548729229621,-43.65727222141349,-84.21571998091088,-56.75085341901397,-59.92862568457224,-62.09084076526467,-51.356370335108494,-125.98265005642034,-30.39075459455768,-57.423703614727316,-63.432425543806595,-61.06200390715678,-52.99098734203321,-57.70100788078896,-56.776701241202204,-65.69540802153551,-56.36931902750804,-45.496458406284006,-35.270036370376936,-57.551713359768,-52.49479056286784,-62.90042903803709,-55.449596512504264,-41.51387064145486,-72.44620191491632,-40.169281343538124
-102.7969565125701,-92.86923600470554,-93.52581949147381,-81.13427077809035,-79.31000388556976,-80.23071576309215,-82.23768845853776,-82.42332170823113,-73.72779701860429,-66.60815310684849,-45.64658367818277,-77.34620858558442,-73.65398343009667,-73.82133180262839,-72.69109802124063,-73.2050265191329,-47.56163148442706,-31.63982136376395,-51.34064556540965,-62.60770711843815,-67.7791272759469,-32.86311725395229,-32.90228271549603,-51.01783541491376,-62.906728976263615,-66.87620224276613,-61.96737706093715,-59.051714298653216,-44.508026066407155,-39.24827599100357,-43.372241139289365,-83.62173584248549,-56.405158691106486,-59.0962677144982,-61.414215536146045,-51.11602587802323,-129.14919664967354,-28.363876663164554,-57.123464509196744,-62.60275398911124,-59.70798082627402,-52.06895103255796,-55.20694136909163,-53.983265958085155,-63.028019157495095,-54.112785604624065,-43.873405550386224,-33.16985878676757,-54.707597570756306,-49.36351915597994,-59.770040944051416,-53.162326815549655,-40.22899077151564,-68.73448765879448,-37.52821481524823
-103.18024908375799,-92.94758248704319,-93.62382429273808,-80.8613769915997,-80.33590175302587,-79.86969725483796,-82.028095466164,-81.82861881641792,-72.76959642428312,-66.10001649543155,-46.003937546288014,-77.35014809194429,-72.71317551060635,-72.92519964155062,-71.59189598078235,-72.07831568599352,-47.60344916174726,-32.05533808943213,-51.691310276471434,-61.572096122583865,-67.13525071809099,-31.232860826191015,-32.81738849949187,-49.87556761107417,-61.947701615905906,-65.95337937356281,-60.96673813753106,-58.735912899234656,-43.13767093621419,-37.47009364435782,-42.11795224820649,-82.12450500644127,-55.04410314481373,-57.47828856308492,-60.06851095490342,-50.26149857314758,-131.15235872477479,-25.805118005376226,-55.41864223963626,-60.63270521444781,-57.390199184609614,-50.174203632778074,-51.97523318119578,-50.70623924540078,-59.75058473188156,-51.468749430072165,-41.95753407407847,-31.156439525920188,-51.3202461809466,-45.67819791842623,-56.07830035109162,-50.30640878365944,-38.59256573856317,-64.511899980901,-34.27302657554982
-102.87726236992758,-92.14136671350488,-92.63571488108028,-79.7636766002733,-80.13876476558754,-78.70479530950567,-80.81838269100842,-80.21456645082637,-70.92960520436185,-65.29024298748084,-46.38691657158504,-76.62812842777397,-71.01610442685188,-70.95445292019058,-69.65731875901511,-70.10361425598063,-47.61192321635283,-31.579952917411898,-52.02049843938207,-60.160681985673044,-65.5571002601363,-30.22769216280608,-31.834505623267848,-48.711695123993564,-60.26235105452143,-63.86444992001635,-59.246934896170465,-57.7760717047404,-41.65395303527234,-35.02805286851052,-40.335373987183004,-80.03366103744742,-52.76780730199449,-55.20574960389542,-58.20867389067149,-48.98523156257265,-130.9275752637723,-23.14822034667547,-52.72455296813941,-57.78677905842533,-54.32806142790592,-47.527484669320394,-48.54011290721432,-47.26733026497554,-56.10552941173116,-48.64918536364658,-40.00137818943752,-29.5144454852226,-47.802462497064,-41.77365365809443,-52.105030135884654,-47.13225318507464,-36.69274912514405,-60.18438825704929,-30.642105864783886
-101.94255908213249,-90.5537078920989,-90.67781115268916,-78.00305499377066,-78.83235886799517,-77.03378747935929,-78.82815404032195,-77.77091251753397,-68.41277127593702,-64.22017972311706,-46.68055050312811,-75.36889271468509,-68.805794610057,-68.17886430053365,-67.09495529132178,-67.52103377167427,-47.558954113681004,-30.164194672956295,-52.33810252637378,-58.518117423204096,-63.15382467877861,-30.043464118909263,-29.957423917089944,-47.75943327521832,-57.99982475622907,-60.839432047163974,-56.923262745026506,-56.26436131138323,-40.37236419120456,-32.289758685897574,-38.661527926478826,-77.76374781474394,-49.84071913711503,-52.4954438969079,-56.01217261802102,-47.490891614787415,-127.80359930686083,-20.93428011212781,-49.648115858895906,-54.45069627299818,-50.823643205096474,-44.419395100976395,-45.405309373967086,-43.95939314678027,-52.36695498269488,-45.83793725710326,-38.23309626493217,-28.381173500556134,-44.53377503661666,-37.96445305816982,-48.142958360955504,-43.92923427649797,-34.69136512688584,-56.15256713871559,-26.93742137821884
-100.61083322138916,-88.48172939524011,-88.10651639597373,-75.8879755782763,-76.78165700926256,-75.31740466195146,-76.46557622648437,-74.89169821984028,-65.54554060642539,-62.95178258624285,-46.784345863413755,-73.93291138684945,-66.44343787133158,-65.0632560497943,-64.2166175423701,-64.67217788772359,-47.41716357151779,-27.972167222266112,-52.64509182143373,-56.85407559215181,-60.20722796151743,-30.58212032479159,-27.37012059412395,-47.27168797947997,-55.406975797082346,-57.30291304445297,-54.21413769641963,-54.35571040234101,-39.49020656233867,-29.565607746309933,-37.72119022878236,-75.73502535699245,-46.64384356089728,-49.6351563599757,-53.6715336018157,-45.96005651813206,-122.32412250202825,-19.661632895891362,-46.83081781848111,-51.05225305005276,-47.22378463261707,-41.17070117514179,-42.93082269596937,-41.00885740475999,-48.82373184792502,-43.19712335081738,-36.831475927809734,-27.773232319268082,-41.791927163818,-34.50759174110622,-44.48464329977406,-41.00975421278436,-32.81379268392095,-52.7421117137452,-23.496123072797324
-99.23393468893872,-86.33942436309087,-85.42158453906502,-73.79269097305396,-74.48269748175778,-74.04885060199425,-74.21718297174512,-72.077422400013,-62.70611755018532,-61.56964059698907,-46.626773602352124,-72.75431389601941,-64.32378707618683,-62.14674295339531,-61.375345094298915,-61.923780633163744,-47.1811862916465,-25.321360322609582,-52.93872744682887,-55.418785560392706,-57.129056064209934,-31.510772669773516,-24.39565215044729,-47.443172977276916,-52.79693970257284,-53.78771859400784,-51.424147372820485,-52.26157404433058,-39.05883535195878,-27.067492177192104,-37.90047413963745,-74.26458664429248,-43.588777010310466,-46.93989970846974,-51.39001746105801,-44.535599769506945,-115.47662605718921,-19.62262322453099,-44.77648622057837,-47.96843575171618,-43.8719716557113,-38.08745118244785,-41.268554261210774,-38.566486850188824,-45.75117987399932,-40.88523295890486,-35.91404025677318,-27.64095876736076,-39.72039374519282,-31.590217001216708,-41.404849018456,-38.67967486583927,-31.306095021337878,-50.155497060944484,-20.64611676278147
-98.18327653935879,-84.54737504821314,-83.12367179497953,-72.05620680994987,-72.403416190944,-73.60992866482357,-72.51550747014521,-69.80182372210574,-60.2362492599618,-60.17067996346935,-46.163283268318445,-72.21834475268308,-62.78015424452688,-59.898331479014615,-58.88795654732441,-59.58300500560839,-46.86229793476686,-22.586806694453568,-53.2160094755075,-54.46063164338879,-54.370882517521004,-32.39001830058137,-21.418715423416174,-48.32373691955813,-50.49474992578517,-50.80950126888746,-48.891264724913896,-50.223092076159574,-38.98824367469403,-24.913352085665867,-39.18787448056803,-73.48406697344959,-41.02837206944537,-44.69356692986682,-49.36945320514719,-43.32114763800959,-108.70379166000708,-20.786648593347987,-43.72270481814703,-45.4553509269984,-41.063247070224605,-35.426986738184134,-40.363396136628666,-36.71535952714714,-43.376168911089565,-39.06772196933811,-35.53801285626267,-27.91698136493326,-38.338550335254865,-29.336136921459335,-39.13695175150649,-37.19194127895843,-30.37088731340571,-48.462764538734206,-18.657374509387267
-97.73636941835768,-83.41096040789526,-81.56374785363369,-70.8840918760549,-70.8369634184753,-74.15618337366404,-71.61898018580186,-68.37741524405848,-58.354510279113185,-58.83415479942753,-45.36266442242492,-72.54478136569442,-62.000155192863375,-58.58930839619682,-56.95980612595535,-57.823757058022764,-46.46641516773136,-20.11010250630765,-53.47674075540753,-54.18034839085896,-52.31805298606207,-32.822574908934754,-18.804317551318494,-49.773723433374585,-48.77401667933693,-48.750442231490716,-46.92061714636981,-48.465836414321096,-39.08897327093652,-23.161738886911674,-41.1624357907766,-73.32110748126397,-39.19310490749115,-43.09327330605885,-47.79267234244231,-42.39199025316911,-103.7779089304716,-22.78263694227144,-43.608232925703845,-43.62596915426301,-39.010008758784394,-33.37920426756574,-40.00683153448178,-35.47987370213877,-41.83866975344131,-37.90476261722713,-35.69848040593971,-28.53775578465419,-37.57387307518877,-27.812987997077254,-37.8385276894672,-36.695338481309356,-30.10855252705852,-47.62403995787634,-17.69377155355705
-97.99145563239878,-83.03529647078723,-80.8426694293826,-70.29188836116066,-69.82521463294434,-75.57094232326259,-71.54824030516644,-67.87013630868773,-57.10462039226877,-57.58648294466415,-44.193352121487,-73.71499028289095,-61.97996984290366,-58.22516250172921,-55.63817190447834,-56.64852892650378,-45.96645748653757,-18.133333392522506,-53.713530225080646,-54.666841924155456,-51.19366502961566,-32.561850459230435,-16.824020055461027,-51.475543613834816,-47.79382810791669,-47.77155219604084,-45.71391705526066,-47.14573548210422,-39.12921345032866,-21.849541828874138,-43.13302982653376,-73.53666188664448,-38.15729464564607,-42.207611357941175,-46.79446889011818,-41.79966642128866,-101.68434398020247,-24.98654764636659,-44.12656820964215,-42.45648496265614,-37.813798861393806,-32.04765363692536,-39.91918461983318,-34.83006724845354,-41.156211762921856,-37.509068094202796,-36.32286189295613,-29.42673495616877,-37.29858835225377,-27.02721870435415,-37.54562498974176,-37.181120428053525,-30.479950369463545,-47.52032868324072,-17.77028522098193
-98.84452226631731,-83.31225655857939,-80.80121115315296,-70.1171610403999,-69.17810037778081,-77.5043401925848,-72.09795208685055,-68.09541820079983,-56.361842148653466,-56.389102490043136,-42.635761582872895,-75.47313530894594,-62.53896987686359,-58.567363195866605,-54.81792557423821,-55.90855298655038,-45.27876386825033,-16.769951039257283,-53.90686419598621,-55.837829592843526,-50.996358385061626,-31.55225414457999,-15.603358315369228,-53.0038935192465,-47.553891044240835,-47.78015408192068,-45.313482014863,-46.303471111164576,-38.88359688401379,-21.000939841627478,-44.38228647075507,-73.81117961090652,-37.84704770803194,-41.95702215327976,-46.42071753402738,-41.55406812004915,-102.75737099529809,-26.68539795727914,-44.84537369009014,-41.821101534580556,-37.45074129318151,-31.439141183335988,-39.84076274280726,-34.685999584482694,-41.21559006476298,-37.903614406746165,-37.28063006772075,-30.465700831903415,-37.36723099062347,-26.918888064580084,-38.1481730295354,-38.47469293202183,-31.31735740848332,-47.998968737840016,-18.75030953527181
